
 ------------------------------------------------------------
     resonance       Raman Scattering Plot
 ------------------------------------------------------------
 Excitation wavelength  514.50 nm
 Convolution lineshape is lorentzian  
 FWHM   20.00  1/cm
 ------------------------------------------------------------
 ------------------------------------------------------------
 # of frequencies :     3
 ------------------------------------------------------------
#  freq [ 1/cm]  S-tot [a.u.]S-real [a.u.]  S-imag [a.u.]
 ------------------------------------------------------------
   1  1584.29        1.6775        1.6773        0.0003
   2  3674.59      114.8807      114.8669        0.0138
   3  3786.71       28.8922       28.8888        0.0034
 ------------------------------------------------------------
  1526.62    0.5931E-04    0.5930E-04    0.9605E-08
  1528.94    0.6415E-04    0.6414E-04    0.1039E-07
  1531.27    0.6963E-04    0.6961E-04    0.1128E-07
  1533.59    0.7583E-04    0.7582E-04    0.1229E-07
  1535.92    0.8290E-04    0.8289E-04    0.1344E-07
  1538.24    0.9100E-04    0.9099E-04    0.1476E-07
  1540.56    0.1003E-03    0.1003E-03    0.1628E-07
  1542.89    0.1112E-03    0.1112E-03    0.1804E-07
  1545.21    0.1239E-03    0.1238E-03    0.2010E-07
  1547.54    0.1388E-03    0.1388E-03    0.2253E-07
  1549.86    0.1566E-03    0.1565E-03    0.2542E-07
  1552.19    0.1778E-03    0.1778E-03    0.2888E-07
  1554.51    0.2036E-03    0.2036E-03    0.3308E-07
  1556.84    0.2352E-03    0.2352E-03    0.3821E-07
  1559.16    0.2744E-03    0.2743E-03    0.4458E-07
  1561.49    0.3235E-03    0.3234E-03    0.5257E-07
  1563.81    0.3860E-03    0.3859E-03    0.6273E-07
  1566.14    0.4665E-03    0.4664E-03    0.7582E-07
  1568.46    0.5714E-03    0.5713E-03    0.9289E-07
  1570.79    0.7091E-03    0.7090E-03    0.1153E-06
  1573.11    0.8897E-03    0.8896E-03    0.1447E-06
  1575.44    0.1122E-02    0.1122E-02    0.1824E-06
  1577.76    0.1403E-02    0.1403E-02    0.2281E-06
  1580.09    0.1700E-02    0.1700E-02    0.2765E-06
  1582.41    0.1932E-02    0.1932E-02    0.3142E-06
  1584.73    0.1997E-02    0.1996E-02    0.3247E-06
  1587.06    0.1858E-02    0.1858E-02    0.3022E-06
  1589.38    0.1589E-02    0.1589E-02    0.2584E-06
  1591.71    0.1291E-02    0.1291E-02    0.2099E-06
  1594.03    0.1027E-02    0.1027E-02    0.1670E-06
  1596.36    0.8152E-03    0.8151E-03    0.1325E-06
  1598.68    0.6521E-03    0.6520E-03    0.1060E-06
  1601.01    0.5280E-03    0.5279E-03    0.8584E-07
  1603.33    0.4333E-03    0.4333E-03    0.7043E-07
  1605.66    0.3604E-03    0.3603E-03    0.5856E-07
  1607.98    0.3034E-03    0.3034E-03    0.4931E-07
  1610.31    0.2585E-03    0.2584E-03    0.4199E-07
  1612.63    0.2224E-03    0.2224E-03    0.3613E-07
  1614.96    0.1932E-03    0.1932E-03    0.3138E-07
  1617.28    0.1693E-03    0.1693E-03    0.2749E-07
  1619.61    0.1495E-03    0.1495E-03    0.2427E-07
  1621.93    0.1329E-03    0.1329E-03    0.2157E-07
  1624.26    0.1189E-03    0.1188E-03    0.1929E-07
  1626.58    0.1069E-03    0.1069E-03    0.1735E-07
  1628.91    0.9670E-04    0.9669E-04    0.1568E-07
  1631.23    0.8787E-04    0.8785E-04    0.1425E-07
  1633.55    0.8018E-04    0.8017E-04    0.1300E-07
  1635.88    0.7347E-04    0.7345E-04    0.1190E-07
  1638.20    0.6756E-04    0.6755E-04    0.1094E-07
  1640.53    0.6234E-04    0.6233E-04    0.1009E-07
  1642.85    0.5771E-04    0.5770E-04    0.9341E-08
  1645.18    0.5358E-04    0.5357E-04    0.8669E-08
  1647.50    0.4988E-04    0.4988E-04    0.8067E-08
  1649.83    0.4656E-04    0.4655E-04    0.7527E-08
  1652.15    0.4356E-04    0.4356E-04    0.7039E-08
  1654.48    0.4085E-04    0.4085E-04    0.6598E-08
  1656.80    0.3839E-04    0.3839E-04    0.6198E-08
  1659.13    0.3615E-04    0.3615E-04    0.5833E-08
  1661.45    0.3411E-04    0.3410E-04    0.5501E-08
  1663.78    0.3223E-04    0.3223E-04    0.5196E-08
  1666.10    0.3052E-04    0.3051E-04    0.4917E-08
  1668.43    0.2894E-04    0.2893E-04    0.4660E-08
  1670.75    0.2748E-04    0.2748E-04    0.4423E-08
  1673.08    0.2614E-04    0.2613E-04    0.4204E-08
  1675.40    0.2489E-04    0.2489E-04    0.4001E-08
  1677.72    0.2374E-04    0.2373E-04    0.3814E-08
  1680.05    0.2267E-04    0.2266E-04    0.3639E-08
  1682.37    0.2167E-04    0.2167E-04    0.3477E-08
  1684.70    0.2074E-04    0.2074E-04    0.3325E-08
  1687.02    0.1987E-04    0.1987E-04    0.3184E-08
  1689.35    0.1906E-04    0.1906E-04    0.3052E-08
  1691.67    0.1830E-04    0.1830E-04    0.2928E-08
  1694.00    0.1759E-04    0.1758E-04    0.2812E-08
  1696.32    0.1692E-04    0.1692E-04    0.2704E-08
  1698.65    0.1629E-04    0.1629E-04    0.2601E-08
  1700.97    0.1570E-04    0.1569E-04    0.2505E-08
  1703.30    0.1514E-04    0.1514E-04    0.2414E-08
  1705.62    0.1461E-04    0.1461E-04    0.2328E-08
  1707.95    0.1412E-04    0.1411E-04    0.2247E-08
  1710.27    0.1365E-04    0.1365E-04    0.2171E-08
  1712.60    0.1320E-04    0.1320E-04    0.2099E-08
  1714.92    0.1278E-04    0.1278E-04    0.2030E-08
  1717.25    0.1238E-04    0.1238E-04    0.1965E-08
  1719.57    0.1201E-04    0.1200E-04    0.1903E-08
  1721.89    0.1165E-04    0.1164E-04    0.1845E-08
  1724.22    0.1130E-04    0.1130E-04    0.1789E-08
  1726.54    0.1098E-04    0.1098E-04    0.1736E-08
  1728.87    0.1067E-04    0.1067E-04    0.1686E-08
  1731.19    0.1037E-04    0.1037E-04    0.1638E-08
  1733.52    0.1009E-04    0.1009E-04    0.1592E-08
  1735.84    0.9825E-05    0.9824E-05    0.1548E-08
  1738.17    0.9569E-05    0.9568E-05    0.1506E-08
  1740.49    0.9324E-05    0.9323E-05    0.1466E-08
  1742.82    0.9090E-05    0.9089E-05    0.1428E-08
  1745.14    0.8867E-05    0.8865E-05    0.1392E-08
  1747.47    0.8652E-05    0.8651E-05    0.1357E-08
  1749.79    0.8447E-05    0.8446E-05    0.1323E-08
  1752.12    0.8251E-05    0.8249E-05    0.1291E-08
  1754.44    0.8062E-05    0.8061E-05    0.1260E-08
  1756.77    0.7881E-05    0.7880E-05    0.1231E-08
  1759.09    0.7708E-05    0.7706E-05    0.1202E-08
  1761.42    0.7541E-05    0.7540E-05    0.1175E-08
  1763.74    0.7381E-05    0.7380E-05    0.1149E-08
  1766.06    0.7227E-05    0.7226E-05    0.1124E-08
  1768.39    0.7079E-05    0.7078E-05    0.1100E-08
  1770.71    0.6936E-05    0.6935E-05    0.1076E-08
  1773.04    0.6799E-05    0.6798E-05    0.1054E-08
  1775.36    0.6667E-05    0.6666E-05    0.1032E-08
  1777.69    0.6540E-05    0.6539E-05    0.1011E-08
  1780.01    0.6417E-05    0.6416E-05    0.9914E-09
  1782.34    0.6299E-05    0.6298E-05    0.9720E-09
  1784.66    0.6185E-05    0.6184E-05    0.9533E-09
  1786.99    0.6075E-05    0.6074E-05    0.9353E-09
  1789.31    0.5968E-05    0.5967E-05    0.9179E-09
  1791.64    0.5866E-05    0.5865E-05    0.9011E-09
  1793.96    0.5767E-05    0.5766E-05    0.8848E-09
  1796.29    0.5671E-05    0.5670E-05    0.8691E-09
  1798.61    0.5578E-05    0.5577E-05    0.8539E-09
  1800.94    0.5489E-05    0.5488E-05    0.8392E-09
  1803.26    0.5402E-05    0.5401E-05    0.8250E-09
  1805.59    0.5318E-05    0.5318E-05    0.8113E-09
  1807.91    0.5237E-05    0.5237E-05    0.7980E-09
  1810.23    0.5159E-05    0.5158E-05    0.7851E-09
  1812.56    0.5083E-05    0.5082E-05    0.7726E-09
  1814.88    0.5009E-05    0.5009E-05    0.7605E-09
  1817.21    0.4938E-05    0.4937E-05    0.7487E-09
  1819.53    0.4869E-05    0.4868E-05    0.7374E-09
  1821.86    0.4802E-05    0.4801E-05    0.7263E-09
  1824.18    0.4737E-05    0.4736E-05    0.7156E-09
  1826.51    0.4674E-05    0.4673E-05    0.7052E-09
  1828.83    0.4613E-05    0.4612E-05    0.6952E-09
  1831.16    0.4554E-05    0.4553E-05    0.6854E-09
  1833.48    0.4496E-05    0.4495E-05    0.6759E-09
  1835.81    0.4440E-05    0.4440E-05    0.6667E-09
  1838.13    0.4386E-05    0.4385E-05    0.6577E-09
  1840.46    0.4333E-05    0.4333E-05    0.6490E-09
  1842.78    0.4282E-05    0.4281E-05    0.6405E-09
  1845.11    0.4232E-05    0.4232E-05    0.6323E-09
  1847.43    0.4184E-05    0.4184E-05    0.6243E-09
  1849.76    0.4137E-05    0.4137E-05    0.6166E-09
  1852.08    0.4092E-05    0.4091E-05    0.6090E-09
  1854.40    0.4047E-05    0.4047E-05    0.6016E-09
  1856.73    0.4004E-05    0.4003E-05    0.5945E-09
  1859.05    0.3962E-05    0.3962E-05    0.5875E-09
  1861.38    0.3921E-05    0.3921E-05    0.5807E-09
  1863.70    0.3882E-05    0.3881E-05    0.5741E-09
  1866.03    0.3843E-05    0.3842E-05    0.5677E-09
  1868.35    0.3805E-05    0.3805E-05    0.5614E-09
  1870.68    0.3769E-05    0.3768E-05    0.5553E-09
  1873.00    0.3733E-05    0.3733E-05    0.5494E-09
  1875.33    0.3699E-05    0.3698E-05    0.5436E-09
  1877.65    0.3665E-05    0.3664E-05    0.5380E-09
  1879.98    0.3632E-05    0.3631E-05    0.5325E-09
  1882.30    0.3600E-05    0.3599E-05    0.5271E-09
  1884.63    0.3569E-05    0.3568E-05    0.5219E-09
  1886.95    0.3538E-05    0.3538E-05    0.5168E-09
  1889.28    0.3509E-05    0.3508E-05    0.5119E-09
  1891.60    0.3480E-05    0.3480E-05    0.5070E-09
  1893.93    0.3452E-05    0.3451E-05    0.5023E-09
  1896.25    0.3425E-05    0.3424E-05    0.4977E-09
  1898.58    0.3398E-05    0.3397E-05    0.4932E-09
  1900.90    0.3372E-05    0.3371E-05    0.4888E-09
  1903.22    0.3347E-05    0.3346E-05    0.4846E-09
  1905.55    0.3322E-05    0.3321E-05    0.4804E-09
  1907.87    0.3298E-05    0.3297E-05    0.4763E-09
  1910.20    0.3274E-05    0.3274E-05    0.4723E-09
  1912.52    0.3251E-05    0.3251E-05    0.4685E-09
  1914.85    0.3229E-05    0.3229E-05    0.4647E-09
  1917.17    0.3207E-05    0.3207E-05    0.4610E-09
  1919.50    0.3186E-05    0.3186E-05    0.4574E-09
  1921.82    0.3166E-05    0.3165E-05    0.4538E-09
  1924.15    0.3145E-05    0.3145E-05    0.4504E-09
  1926.47    0.3126E-05    0.3125E-05    0.4470E-09
  1928.80    0.3106E-05    0.3106E-05    0.4438E-09
  1931.12    0.3088E-05    0.3087E-05    0.4406E-09
  1933.45    0.3070E-05    0.3069E-05    0.4374E-09
  1935.77    0.3052E-05    0.3051E-05    0.4344E-09
  1938.10    0.3034E-05    0.3034E-05    0.4314E-09
  1940.42    0.3017E-05    0.3017E-05    0.4285E-09
  1942.75    0.3001E-05    0.3000E-05    0.4256E-09
  1945.07    0.2985E-05    0.2984E-05    0.4228E-09
  1947.39    0.2969E-05    0.2969E-05    0.4201E-09
  1949.72    0.2954E-05    0.2953E-05    0.4174E-09
  1952.04    0.2939E-05    0.2938E-05    0.4148E-09
  1954.37    0.2924E-05    0.2924E-05    0.4123E-09
  1956.69    0.2910E-05    0.2910E-05    0.4098E-09
  1959.02    0.2896E-05    0.2896E-05    0.4074E-09
  1961.34    0.2883E-05    0.2882E-05    0.4050E-09
  1963.67    0.2869E-05    0.2869E-05    0.4027E-09
  1965.99    0.2857E-05    0.2856E-05    0.4004E-09
  1968.32    0.2844E-05    0.2844E-05    0.3982E-09
  1970.64    0.2832E-05    0.2831E-05    0.3961E-09
  1972.97    0.2820E-05    0.2819E-05    0.3939E-09
  1975.29    0.2808E-05    0.2808E-05    0.3919E-09
  1977.62    0.2797E-05    0.2797E-05    0.3899E-09
  1979.94    0.2786E-05    0.2785E-05    0.3879E-09
  1982.27    0.2775E-05    0.2775E-05    0.3860E-09
  1984.59    0.2765E-05    0.2764E-05    0.3841E-09
  1986.92    0.2754E-05    0.2754E-05    0.3822E-09
  1989.24    0.2744E-05    0.2744E-05    0.3804E-09
  1991.56    0.2735E-05    0.2734E-05    0.3787E-09
  1993.89    0.2725E-05    0.2725E-05    0.3770E-09
  1996.21    0.2716E-05    0.2716E-05    0.3753E-09
  1998.54    0.2707E-05    0.2707E-05    0.3737E-09
  2000.86    0.2698E-05    0.2698E-05    0.3721E-09
  2003.19    0.2690E-05    0.2690E-05    0.3705E-09
  2005.51    0.2682E-05    0.2681E-05    0.3690E-09
  2007.84    0.2674E-05    0.2673E-05    0.3675E-09
  2010.16    0.2666E-05    0.2666E-05    0.3660E-09
  2012.49    0.2658E-05    0.2658E-05    0.3646E-09
  2014.81    0.2651E-05    0.2651E-05    0.3632E-09
  2017.14    0.2644E-05    0.2643E-05    0.3618E-09
  2019.46    0.2637E-05    0.2636E-05    0.3605E-09
  2021.79    0.2630E-05    0.2630E-05    0.3592E-09
  2024.11    0.2623E-05    0.2623E-05    0.3580E-09
  2026.44    0.2617E-05    0.2617E-05    0.3567E-09
  2028.76    0.2611E-05    0.2610E-05    0.3555E-09
  2031.09    0.2605E-05    0.2604E-05    0.3544E-09
  2033.41    0.2599E-05    0.2599E-05    0.3532E-09
  2035.73    0.2593E-05    0.2593E-05    0.3521E-09
  2038.06    0.2588E-05    0.2587E-05    0.3510E-09
  2040.38    0.2582E-05    0.2582E-05    0.3500E-09
  2042.71    0.2577E-05    0.2577E-05    0.3489E-09
  2045.03    0.2572E-05    0.2572E-05    0.3479E-09
  2047.36    0.2568E-05    0.2567E-05    0.3469E-09
  2049.68    0.2563E-05    0.2563E-05    0.3460E-09
  2052.01    0.2558E-05    0.2558E-05    0.3450E-09
  2054.33    0.2554E-05    0.2554E-05    0.3441E-09
  2056.66    0.2550E-05    0.2550E-05    0.3433E-09
  2058.98    0.2546E-05    0.2545E-05    0.3424E-09
  2061.31    0.2542E-05    0.2542E-05    0.3416E-09
  2063.63    0.2538E-05    0.2538E-05    0.3407E-09
  2065.96    0.2535E-05    0.2534E-05    0.3399E-09
  2068.28    0.2531E-05    0.2531E-05    0.3392E-09
  2070.61    0.2528E-05    0.2527E-05    0.3384E-09
  2072.93    0.2525E-05    0.2524E-05    0.3377E-09
  2075.26    0.2522E-05    0.2521E-05    0.3370E-09
  2077.58    0.2519E-05    0.2518E-05    0.3363E-09
  2079.90    0.2516E-05    0.2516E-05    0.3356E-09
  2082.23    0.2513E-05    0.2513E-05    0.3350E-09
  2084.55    0.2511E-05    0.2510E-05    0.3344E-09
  2086.88    0.2508E-05    0.2508E-05    0.3338E-09
  2089.20    0.2506E-05    0.2506E-05    0.3332E-09
  2091.53    0.2504E-05    0.2503E-05    0.3326E-09
  2093.85    0.2502E-05    0.2501E-05    0.3321E-09
  2096.18    0.2500E-05    0.2500E-05    0.3315E-09
  2098.50    0.2498E-05    0.2498E-05    0.3310E-09
  2100.83    0.2496E-05    0.2496E-05    0.3305E-09
  2103.15    0.2495E-05    0.2494E-05    0.3300E-09
  2105.48    0.2493E-05    0.2493E-05    0.3296E-09
  2107.80    0.2492E-05    0.2492E-05    0.3291E-09
  2110.13    0.2491E-05    0.2490E-05    0.3287E-09
  2112.45    0.2490E-05    0.2489E-05    0.3283E-09
  2114.78    0.2488E-05    0.2488E-05    0.3279E-09
  2117.10    0.2488E-05    0.2487E-05    0.3275E-09
  2119.43    0.2487E-05    0.2486E-05    0.3272E-09
  2121.75    0.2486E-05    0.2486E-05    0.3268E-09
  2124.07    0.2485E-05    0.2485E-05    0.3265E-09
  2126.40    0.2485E-05    0.2485E-05    0.3262E-09
  2128.72    0.2484E-05    0.2484E-05    0.3259E-09
  2131.05    0.2484E-05    0.2484E-05    0.3256E-09
  2133.37    0.2484E-05    0.2484E-05    0.3253E-09
  2135.70    0.2484E-05    0.2483E-05    0.3251E-09
  2138.02    0.2484E-05    0.2483E-05    0.3248E-09
  2140.35    0.2484E-05    0.2483E-05    0.3246E-09
  2142.67    0.2484E-05    0.2484E-05    0.3244E-09
  2145.00    0.2484E-05    0.2484E-05    0.3242E-09
  2147.32    0.2484E-05    0.2484E-05    0.3240E-09
  2149.65    0.2485E-05    0.2485E-05    0.3238E-09
  2151.97    0.2485E-05    0.2485E-05    0.3237E-09
  2154.30    0.2486E-05    0.2486E-05    0.3235E-09
  2156.62    0.2487E-05    0.2486E-05    0.3234E-09
  2158.95    0.2487E-05    0.2487E-05    0.3232E-09
  2161.27    0.2488E-05    0.2488E-05    0.3231E-09
  2163.60    0.2489E-05    0.2489E-05    0.3230E-09
  2165.92    0.2490E-05    0.2490E-05    0.3230E-09
  2168.25    0.2491E-05    0.2491E-05    0.3229E-09
  2170.57    0.2492E-05    0.2492E-05    0.3228E-09
  2172.89    0.2494E-05    0.2493E-05    0.3228E-09
  2175.22    0.2495E-05    0.2495E-05    0.3227E-09
  2177.54    0.2497E-05    0.2496E-05    0.3227E-09
  2179.87    0.2498E-05    0.2498E-05    0.3227E-09
  2182.19    0.2500E-05    0.2499E-05    0.3227E-09
  2184.52    0.2501E-05    0.2501E-05    0.3227E-09
  2186.84    0.2503E-05    0.2503E-05    0.3228E-09
  2189.17    0.2505E-05    0.2505E-05    0.3228E-09
  2191.49    0.2507E-05    0.2506E-05    0.3228E-09
  2193.82    0.2509E-05    0.2508E-05    0.3229E-09
  2196.14    0.2511E-05    0.2510E-05    0.3230E-09
  2198.47    0.2513E-05    0.2513E-05    0.3230E-09
  2200.79    0.2515E-05    0.2515E-05    0.3231E-09
  2203.12    0.2517E-05    0.2517E-05    0.3232E-09
  2205.44    0.2520E-05    0.2519E-05    0.3233E-09
  2207.77    0.2522E-05    0.2522E-05    0.3235E-09
  2210.09    0.2525E-05    0.2524E-05    0.3236E-09
  2212.42    0.2527E-05    0.2527E-05    0.3237E-09
  2214.74    0.2530E-05    0.2529E-05    0.3239E-09
  2217.06    0.2533E-05    0.2532E-05    0.3241E-09
  2219.39    0.2535E-05    0.2535E-05    0.3242E-09
  2221.71    0.2538E-05    0.2538E-05    0.3244E-09
  2224.04    0.2541E-05    0.2541E-05    0.3246E-09
  2226.36    0.2544E-05    0.2544E-05    0.3248E-09
  2228.69    0.2547E-05    0.2547E-05    0.3250E-09
  2231.01    0.2550E-05    0.2550E-05    0.3253E-09
  2233.34    0.2553E-05    0.2553E-05    0.3255E-09
  2235.66    0.2557E-05    0.2556E-05    0.3257E-09
  2237.99    0.2560E-05    0.2560E-05    0.3260E-09
  2240.31    0.2563E-05    0.2563E-05    0.3262E-09
  2242.64    0.2567E-05    0.2567E-05    0.3265E-09
  2244.96    0.2570E-05    0.2570E-05    0.3268E-09
  2247.29    0.2574E-05    0.2574E-05    0.3271E-09
  2249.61    0.2578E-05    0.2577E-05    0.3274E-09
  2251.94    0.2581E-05    0.2581E-05    0.3277E-09
  2254.26    0.2585E-05    0.2585E-05    0.3280E-09
  2256.59    0.2589E-05    0.2589E-05    0.3283E-09
  2258.91    0.2593E-05    0.2593E-05    0.3287E-09
  2261.23    0.2597E-05    0.2597E-05    0.3290E-09
  2263.56    0.2601E-05    0.2601E-05    0.3294E-09
  2265.88    0.2605E-05    0.2605E-05    0.3298E-09
  2268.21    0.2609E-05    0.2609E-05    0.3301E-09
  2270.53    0.2614E-05    0.2613E-05    0.3305E-09
  2272.86    0.2618E-05    0.2618E-05    0.3309E-09
  2275.18    0.2622E-05    0.2622E-05    0.3313E-09
  2277.51    0.2627E-05    0.2626E-05    0.3317E-09
  2279.83    0.2631E-05    0.2631E-05    0.3321E-09
  2282.16    0.2636E-05    0.2635E-05    0.3326E-09
  2284.48    0.2640E-05    0.2640E-05    0.3330E-09
  2286.81    0.2645E-05    0.2645E-05    0.3334E-09
  2289.13    0.2650E-05    0.2649E-05    0.3339E-09
  2291.46    0.2655E-05    0.2654E-05    0.3344E-09
  2293.78    0.2660E-05    0.2659E-05    0.3348E-09
  2296.11    0.2664E-05    0.2664E-05    0.3353E-09
  2298.43    0.2670E-05    0.2669E-05    0.3358E-09
  2300.76    0.2675E-05    0.2674E-05    0.3363E-09
  2303.08    0.2680E-05    0.2679E-05    0.3368E-09
  2305.40    0.2685E-05    0.2685E-05    0.3373E-09
  2307.73    0.2690E-05    0.2690E-05    0.3378E-09
  2310.05    0.2696E-05    0.2695E-05    0.3384E-09
  2312.38    0.2701E-05    0.2701E-05    0.3389E-09
  2314.70    0.2706E-05    0.2706E-05    0.3394E-09
  2317.03    0.2712E-05    0.2712E-05    0.3400E-09
  2319.35    0.2717E-05    0.2717E-05    0.3406E-09
  2321.68    0.2723E-05    0.2723E-05    0.3411E-09
  2324.00    0.2729E-05    0.2728E-05    0.3417E-09
  2326.33    0.2735E-05    0.2734E-05    0.3423E-09
  2328.65    0.2740E-05    0.2740E-05    0.3429E-09
  2330.98    0.2746E-05    0.2746E-05    0.3435E-09
  2333.30    0.2752E-05    0.2752E-05    0.3441E-09
  2335.63    0.2758E-05    0.2758E-05    0.3448E-09
  2337.95    0.2764E-05    0.2764E-05    0.3454E-09
  2340.28    0.2770E-05    0.2770E-05    0.3460E-09
  2342.60    0.2777E-05    0.2776E-05    0.3467E-09
  2344.93    0.2783E-05    0.2783E-05    0.3473E-09
  2347.25    0.2789E-05    0.2789E-05    0.3480E-09
  2349.57    0.2796E-05    0.2795E-05    0.3487E-09
  2351.90    0.2802E-05    0.2802E-05    0.3494E-09
  2354.22    0.2809E-05    0.2808E-05    0.3501E-09
  2356.55    0.2815E-05    0.2815E-05    0.3508E-09
  2358.87    0.2822E-05    0.2822E-05    0.3515E-09
  2361.20    0.2829E-05    0.2828E-05    0.3522E-09
  2363.52    0.2835E-05    0.2835E-05    0.3529E-09
  2365.85    0.2842E-05    0.2842E-05    0.3536E-09
  2368.17    0.2849E-05    0.2849E-05    0.3544E-09
  2370.50    0.2856E-05    0.2856E-05    0.3551E-09
  2372.82    0.2863E-05    0.2863E-05    0.3559E-09
  2375.15    0.2870E-05    0.2870E-05    0.3566E-09
  2377.47    0.2877E-05    0.2877E-05    0.3574E-09
  2379.80    0.2885E-05    0.2884E-05    0.3582E-09
  2382.12    0.2892E-05    0.2891E-05    0.3590E-09
  2384.45    0.2899E-05    0.2899E-05    0.3598E-09
  2386.77    0.2907E-05    0.2906E-05    0.3606E-09
  2389.10    0.2914E-05    0.2914E-05    0.3614E-09
  2391.42    0.2922E-05    0.2921E-05    0.3622E-09
  2393.74    0.2929E-05    0.2929E-05    0.3631E-09
  2396.07    0.2937E-05    0.2937E-05    0.3639E-09
  2398.39    0.2945E-05    0.2944E-05    0.3648E-09
  2400.72    0.2952E-05    0.2952E-05    0.3656E-09
  2403.04    0.2960E-05    0.2960E-05    0.3665E-09
  2405.37    0.2968E-05    0.2968E-05    0.3674E-09
  2407.69    0.2976E-05    0.2976E-05    0.3683E-09
  2410.02    0.2984E-05    0.2984E-05    0.3691E-09
  2412.34    0.2993E-05    0.2992E-05    0.3700E-09
  2414.67    0.3001E-05    0.3000E-05    0.3710E-09
  2416.99    0.3009E-05    0.3009E-05    0.3719E-09
  2419.32    0.3017E-05    0.3017E-05    0.3728E-09
  2421.64    0.3026E-05    0.3025E-05    0.3737E-09
  2423.97    0.3034E-05    0.3034E-05    0.3747E-09
  2426.29    0.3043E-05    0.3042E-05    0.3756E-09
  2428.62    0.3051E-05    0.3051E-05    0.3766E-09
  2430.94    0.3060E-05    0.3060E-05    0.3776E-09
  2433.27    0.3069E-05    0.3068E-05    0.3786E-09
  2435.59    0.3078E-05    0.3077E-05    0.3795E-09
  2437.92    0.3087E-05    0.3086E-05    0.3805E-09
  2440.24    0.3096E-05    0.3095E-05    0.3816E-09
  2442.56    0.3105E-05    0.3104E-05    0.3826E-09
  2444.89    0.3114E-05    0.3113E-05    0.3836E-09
  2447.21    0.3123E-05    0.3122E-05    0.3846E-09
  2449.54    0.3132E-05    0.3132E-05    0.3857E-09
  2451.86    0.3141E-05    0.3141E-05    0.3867E-09
  2454.19    0.3151E-05    0.3150E-05    0.3878E-09
  2456.51    0.3160E-05    0.3160E-05    0.3889E-09
  2458.84    0.3170E-05    0.3169E-05    0.3899E-09
  2461.16    0.3179E-05    0.3179E-05    0.3910E-09
  2463.49    0.3189E-05    0.3189E-05    0.3921E-09
  2465.81    0.3199E-05    0.3199E-05    0.3932E-09
  2468.14    0.3209E-05    0.3208E-05    0.3943E-09
  2470.46    0.3219E-05    0.3218E-05    0.3955E-09
  2472.79    0.3229E-05    0.3228E-05    0.3966E-09
  2475.11    0.3239E-05    0.3238E-05    0.3978E-09
  2477.44    0.3249E-05    0.3248E-05    0.3989E-09
  2479.76    0.3259E-05    0.3259E-05    0.4001E-09
  2482.09    0.3269E-05    0.3269E-05    0.4012E-09
  2484.41    0.3280E-05    0.3279E-05    0.4024E-09
  2486.73    0.3290E-05    0.3290E-05    0.4036E-09
  2489.06    0.3301E-05    0.3300E-05    0.4048E-09
  2491.38    0.3311E-05    0.3311E-05    0.4060E-09
  2493.71    0.3322E-05    0.3322E-05    0.4073E-09
  2496.03    0.3333E-05    0.3332E-05    0.4085E-09
  2498.36    0.3344E-05    0.3343E-05    0.4097E-09
  2500.68    0.3354E-05    0.3354E-05    0.4110E-09
  2503.01    0.3365E-05    0.3365E-05    0.4122E-09
  2505.33    0.3377E-05    0.3376E-05    0.4135E-09
  2507.66    0.3388E-05    0.3387E-05    0.4148E-09
  2509.98    0.3399E-05    0.3399E-05    0.4161E-09
  2512.31    0.3410E-05    0.3410E-05    0.4174E-09
  2514.63    0.3422E-05    0.3421E-05    0.4187E-09
  2516.96    0.3433E-05    0.3433E-05    0.4200E-09
  2519.28    0.3445E-05    0.3444E-05    0.4214E-09
  2521.61    0.3456E-05    0.3456E-05    0.4227E-09
  2523.93    0.3468E-05    0.3468E-05    0.4241E-09
  2526.26    0.3480E-05    0.3480E-05    0.4254E-09
  2528.58    0.3492E-05    0.3491E-05    0.4268E-09
  2530.90    0.3504E-05    0.3503E-05    0.4282E-09
  2533.23    0.3516E-05    0.3516E-05    0.4296E-09
  2535.55    0.3528E-05    0.3528E-05    0.4310E-09
  2537.88    0.3540E-05    0.3540E-05    0.4324E-09
  2540.20    0.3553E-05    0.3552E-05    0.4338E-09
  2542.53    0.3565E-05    0.3565E-05    0.4353E-09
  2544.85    0.3578E-05    0.3577E-05    0.4367E-09
  2547.18    0.3590E-05    0.3590E-05    0.4382E-09
  2549.50    0.3603E-05    0.3603E-05    0.4397E-09
  2551.83    0.3616E-05    0.3615E-05    0.4412E-09
  2554.15    0.3629E-05    0.3628E-05    0.4427E-09
  2556.48    0.3642E-05    0.3641E-05    0.4442E-09
  2558.80    0.3655E-05    0.3654E-05    0.4457E-09
  2561.13    0.3668E-05    0.3668E-05    0.4472E-09
  2563.45    0.3681E-05    0.3681E-05    0.4488E-09
  2565.78    0.3695E-05    0.3694E-05    0.4503E-09
  2568.10    0.3708E-05    0.3708E-05    0.4519E-09
  2570.43    0.3722E-05    0.3721E-05    0.4535E-09
  2572.75    0.3735E-05    0.3735E-05    0.4550E-09
  2575.07    0.3749E-05    0.3749E-05    0.4567E-09
  2577.40    0.3763E-05    0.3763E-05    0.4583E-09
  2579.72    0.3777E-05    0.3776E-05    0.4599E-09
  2582.05    0.3791E-05    0.3791E-05    0.4615E-09
  2584.37    0.3805E-05    0.3805E-05    0.4632E-09
  2586.70    0.3819E-05    0.3819E-05    0.4648E-09
  2589.02    0.3834E-05    0.3833E-05    0.4665E-09
  2591.35    0.3848E-05    0.3848E-05    0.4682E-09
  2593.67    0.3863E-05    0.3862E-05    0.4699E-09
  2596.00    0.3878E-05    0.3877E-05    0.4716E-09
  2598.32    0.3892E-05    0.3892E-05    0.4734E-09
  2600.65    0.3907E-05    0.3907E-05    0.4751E-09
  2602.97    0.3922E-05    0.3922E-05    0.4769E-09
  2605.30    0.3937E-05    0.3937E-05    0.4786E-09
  2607.62    0.3952E-05    0.3952E-05    0.4804E-09
  2609.95    0.3968E-05    0.3967E-05    0.4822E-09
  2612.27    0.3983E-05    0.3983E-05    0.4840E-09
  2614.60    0.3999E-05    0.3998E-05    0.4858E-09
  2616.92    0.4014E-05    0.4014E-05    0.4877E-09
  2619.24    0.4030E-05    0.4030E-05    0.4895E-09
  2621.57    0.4046E-05    0.4046E-05    0.4914E-09
  2623.89    0.4062E-05    0.4062E-05    0.4932E-09
  2626.22    0.4078E-05    0.4078E-05    0.4951E-09
  2628.54    0.4094E-05    0.4094E-05    0.4970E-09
  2630.87    0.4111E-05    0.4110E-05    0.4990E-09
  2633.19    0.4127E-05    0.4127E-05    0.5009E-09
  2635.52    0.4144E-05    0.4143E-05    0.5028E-09
  2637.84    0.4161E-05    0.4160E-05    0.5048E-09
  2640.17    0.4177E-05    0.4177E-05    0.5068E-09
  2642.49    0.4194E-05    0.4194E-05    0.5088E-09
  2644.82    0.4211E-05    0.4211E-05    0.5108E-09
  2647.14    0.4229E-05    0.4228E-05    0.5128E-09
  2649.47    0.4246E-05    0.4245E-05    0.5148E-09
  2651.79    0.4263E-05    0.4263E-05    0.5169E-09
  2654.12    0.4281E-05    0.4281E-05    0.5190E-09
  2656.44    0.4299E-05    0.4298E-05    0.5210E-09
  2658.77    0.4317E-05    0.4316E-05    0.5231E-09
  2661.09    0.4335E-05    0.4334E-05    0.5253E-09
  2663.41    0.4353E-05    0.4352E-05    0.5274E-09
  2665.74    0.4371E-05    0.4370E-05    0.5295E-09
  2668.06    0.4389E-05    0.4389E-05    0.5317E-09
  2670.39    0.4408E-05    0.4407E-05    0.5339E-09
  2672.71    0.4426E-05    0.4426E-05    0.5361E-09
  2675.04    0.4445E-05    0.4445E-05    0.5383E-09
  2677.36    0.4464E-05    0.4464E-05    0.5405E-09
  2679.69    0.4483E-05    0.4483E-05    0.5428E-09
  2682.01    0.4502E-05    0.4502E-05    0.5450E-09
  2684.34    0.4522E-05    0.4521E-05    0.5473E-09
  2686.66    0.4541E-05    0.4541E-05    0.5496E-09
  2688.99    0.4561E-05    0.4560E-05    0.5519E-09
  2691.31    0.4581E-05    0.4580E-05    0.5543E-09
  2693.64    0.4601E-05    0.4600E-05    0.5566E-09
  2695.96    0.4621E-05    0.4620E-05    0.5590E-09
  2698.29    0.4641E-05    0.4640E-05    0.5614E-09
  2700.61    0.4661E-05    0.4661E-05    0.5638E-09
  2702.94    0.4682E-05    0.4681E-05    0.5662E-09
  2705.26    0.4703E-05    0.4702E-05    0.5687E-09
  2707.58    0.4723E-05    0.4723E-05    0.5711E-09
  2709.91    0.4744E-05    0.4744E-05    0.5736E-09
  2712.23    0.4766E-05    0.4765E-05    0.5761E-09
  2714.56    0.4787E-05    0.4786E-05    0.5786E-09
  2716.88    0.4808E-05    0.4808E-05    0.5812E-09
  2719.21    0.4830E-05    0.4829E-05    0.5837E-09
  2721.53    0.4852E-05    0.4851E-05    0.5863E-09
  2723.86    0.4874E-05    0.4873E-05    0.5889E-09
  2726.18    0.4896E-05    0.4895E-05    0.5915E-09
  2728.51    0.4918E-05    0.4918E-05    0.5942E-09
  2730.83    0.4941E-05    0.4940E-05    0.5968E-09
  2733.16    0.4963E-05    0.4963E-05    0.5995E-09
  2735.48    0.4986E-05    0.4986E-05    0.6022E-09
  2737.81    0.5009E-05    0.5009E-05    0.6049E-09
  2740.13    0.5032E-05    0.5032E-05    0.6077E-09
  2742.46    0.5056E-05    0.5055E-05    0.6104E-09
  2744.78    0.5079E-05    0.5079E-05    0.6132E-09
  2747.11    0.5103E-05    0.5102E-05    0.6160E-09
  2749.43    0.5127E-05    0.5126E-05    0.6189E-09
  2751.76    0.5151E-05    0.5151E-05    0.6217E-09
  2754.08    0.5175E-05    0.5175E-05    0.6246E-09
  2756.40    0.5200E-05    0.5199E-05    0.6275E-09
  2758.73    0.5225E-05    0.5224E-05    0.6304E-09
  2761.05    0.5249E-05    0.5249E-05    0.6334E-09
  2763.38    0.5274E-05    0.5274E-05    0.6363E-09
  2765.70    0.5300E-05    0.5299E-05    0.6393E-09
  2768.03    0.5325E-05    0.5325E-05    0.6423E-09
  2770.35    0.5351E-05    0.5350E-05    0.6454E-09
  2772.68    0.5377E-05    0.5376E-05    0.6485E-09
  2775.00    0.5403E-05    0.5402E-05    0.6515E-09
  2777.33    0.5429E-05    0.5428E-05    0.6547E-09
  2779.65    0.5456E-05    0.5455E-05    0.6578E-09
  2781.98    0.5482E-05    0.5482E-05    0.6610E-09
  2784.30    0.5509E-05    0.5508E-05    0.6642E-09
  2786.63    0.5536E-05    0.5536E-05    0.6674E-09
  2788.95    0.5564E-05    0.5563E-05    0.6706E-09
  2791.28    0.5591E-05    0.5590E-05    0.6739E-09
  2793.60    0.5619E-05    0.5618E-05    0.6772E-09
  2795.93    0.5647E-05    0.5646E-05    0.6805E-09
  2798.25    0.5675E-05    0.5674E-05    0.6839E-09
  2800.57    0.5704E-05    0.5703E-05    0.6872E-09
  2802.90    0.5732E-05    0.5732E-05    0.6906E-09
  2805.22    0.5761E-05    0.5760E-05    0.6941E-09
  2807.55    0.5790E-05    0.5790E-05    0.6975E-09
  2809.87    0.5820E-05    0.5819E-05    0.7010E-09
  2812.20    0.5849E-05    0.5849E-05    0.7046E-09
  2814.52    0.5879E-05    0.5879E-05    0.7081E-09
  2816.85    0.5909E-05    0.5909E-05    0.7117E-09
  2819.17    0.5940E-05    0.5939E-05    0.7153E-09
  2821.50    0.5970E-05    0.5970E-05    0.7189E-09
  2823.82    0.6001E-05    0.6001E-05    0.7226E-09
  2826.15    0.6032E-05    0.6032E-05    0.7263E-09
  2828.47    0.6064E-05    0.6063E-05    0.7300E-09
  2830.80    0.6095E-05    0.6095E-05    0.7338E-09
  2833.12    0.6127E-05    0.6127E-05    0.7376E-09
  2835.45    0.6160E-05    0.6159E-05    0.7414E-09
  2837.77    0.6192E-05    0.6191E-05    0.7453E-09
  2840.10    0.6225E-05    0.6224E-05    0.7492E-09
  2842.42    0.6258E-05    0.6257E-05    0.7531E-09
  2844.74    0.6291E-05    0.6290E-05    0.7571E-09
  2847.07    0.6325E-05    0.6324E-05    0.7610E-09
  2849.39    0.6359E-05    0.6358E-05    0.7651E-09
  2851.72    0.6393E-05    0.6392E-05    0.7691E-09
  2854.04    0.6427E-05    0.6426E-05    0.7732E-09
  2856.37    0.6462E-05    0.6461E-05    0.7774E-09
  2858.69    0.6497E-05    0.6496E-05    0.7815E-09
  2861.02    0.6532E-05    0.6531E-05    0.7857E-09
  2863.34    0.6568E-05    0.6567E-05    0.7900E-09
  2865.67    0.6604E-05    0.6603E-05    0.7943E-09
  2867.99    0.6640E-05    0.6639E-05    0.7986E-09
  2870.32    0.6677E-05    0.6676E-05    0.8029E-09
  2872.64    0.6714E-05    0.6713E-05    0.8073E-09
  2874.97    0.6751E-05    0.6750E-05    0.8117E-09
  2877.29    0.6788E-05    0.6788E-05    0.8162E-09
  2879.62    0.6826E-05    0.6825E-05    0.8207E-09
  2881.94    0.6864E-05    0.6864E-05    0.8253E-09
  2884.27    0.6903E-05    0.6902E-05    0.8299E-09
  2886.59    0.6942E-05    0.6941E-05    0.8345E-09
  2888.91    0.6981E-05    0.6980E-05    0.8392E-09
  2891.24    0.7021E-05    0.7020E-05    0.8439E-09
  2893.56    0.7061E-05    0.7060E-05    0.8486E-09
  2895.89    0.7101E-05    0.7100E-05    0.8534E-09
  2898.21    0.7142E-05    0.7141E-05    0.8583E-09
  2900.54    0.7183E-05    0.7182E-05    0.8632E-09
  2902.86    0.7224E-05    0.7223E-05    0.8681E-09
  2905.19    0.7266E-05    0.7265E-05    0.8731E-09
  2907.51    0.7308E-05    0.7307E-05    0.8781E-09
  2909.84    0.7351E-05    0.7350E-05    0.8832E-09
  2912.16    0.7393E-05    0.7393E-05    0.8883E-09
  2914.49    0.7437E-05    0.7436E-05    0.8934E-09
  2916.81    0.7480E-05    0.7480E-05    0.8986E-09
  2919.14    0.7525E-05    0.7524E-05    0.9039E-09
  2921.46    0.7569E-05    0.7568E-05    0.9092E-09
  2923.79    0.7614E-05    0.7613E-05    0.9145E-09
  2926.11    0.7659E-05    0.7659E-05    0.9200E-09
  2928.44    0.7705E-05    0.7704E-05    0.9254E-09
  2930.76    0.7751E-05    0.7750E-05    0.9309E-09
  2933.08    0.7798E-05    0.7797E-05    0.9365E-09
  2935.41    0.7845E-05    0.7844E-05    0.9421E-09
  2937.73    0.7893E-05    0.7892E-05    0.9477E-09
  2940.06    0.7941E-05    0.7940E-05    0.9535E-09
  2942.38    0.7989E-05    0.7988E-05    0.9592E-09
  2944.71    0.8038E-05    0.8037E-05    0.9651E-09
  2947.03    0.8087E-05    0.8086E-05    0.9709E-09
  2949.36    0.8137E-05    0.8136E-05    0.9769E-09
  2951.68    0.8187E-05    0.8186E-05    0.9829E-09
  2954.01    0.8238E-05    0.8237E-05    0.9889E-09
  2956.33    0.8290E-05    0.8289E-05    0.9951E-09
  2958.66    0.8341E-05    0.8340E-05    0.1001E-08
  2960.98    0.8394E-05    0.8393E-05    0.1007E-08
  2963.31    0.8446E-05    0.8445E-05    0.1014E-08
  2965.63    0.8500E-05    0.8499E-05    0.1020E-08
  2967.96    0.8553E-05    0.8552E-05    0.1027E-08
  2970.28    0.8608E-05    0.8607E-05    0.1033E-08
  2972.61    0.8663E-05    0.8662E-05    0.1040E-08
  2974.93    0.8718E-05    0.8717E-05    0.1046E-08
  2977.25    0.8774E-05    0.8773E-05    0.1053E-08
  2979.58    0.8831E-05    0.8830E-05    0.1060E-08
  2981.90    0.8888E-05    0.8887E-05    0.1066E-08
  2984.23    0.8945E-05    0.8944E-05    0.1073E-08
  2986.55    0.9004E-05    0.9003E-05    0.1080E-08
  2988.88    0.9063E-05    0.9061E-05    0.1087E-08
  2991.20    0.9122E-05    0.9121E-05    0.1094E-08
  2993.53    0.9182E-05    0.9181E-05    0.1101E-08
  2995.85    0.9243E-05    0.9242E-05    0.1109E-08
  2998.18    0.9304E-05    0.9303E-05    0.1116E-08
  3000.50    0.9366E-05    0.9365E-05    0.1123E-08
  3002.83    0.9428E-05    0.9427E-05    0.1131E-08
  3005.15    0.9492E-05    0.9490E-05    0.1138E-08
  3007.48    0.9555E-05    0.9554E-05    0.1146E-08
  3009.80    0.9620E-05    0.9619E-05    0.1154E-08
  3012.13    0.9685E-05    0.9684E-05    0.1162E-08
  3014.45    0.9751E-05    0.9750E-05    0.1169E-08
  3016.78    0.9818E-05    0.9816E-05    0.1177E-08
  3019.10    0.9885E-05    0.9884E-05    0.1185E-08
  3021.43    0.9953E-05    0.9952E-05    0.1193E-08
  3023.75    0.1002E-04    0.1002E-04    0.1202E-08
  3026.07    0.1009E-04    0.1009E-04    0.1210E-08
  3028.40    0.1016E-04    0.1016E-04    0.1218E-08
  3030.72    0.1023E-04    0.1023E-04    0.1227E-08
  3033.05    0.1030E-04    0.1030E-04    0.1235E-08
  3035.37    0.1038E-04    0.1037E-04    0.1244E-08
  3037.70    0.1045E-04    0.1045E-04    0.1253E-08
  3040.02    0.1052E-04    0.1052E-04    0.1262E-08
  3042.35    0.1060E-04    0.1060E-04    0.1270E-08
  3044.67    0.1067E-04    0.1067E-04    0.1279E-08
  3047.00    0.1075E-04    0.1075E-04    0.1289E-08
  3049.32    0.1083E-04    0.1083E-04    0.1298E-08
  3051.65    0.1091E-04    0.1090E-04    0.1307E-08
  3053.97    0.1098E-04    0.1098E-04    0.1317E-08
  3056.30    0.1106E-04    0.1106E-04    0.1326E-08
  3058.62    0.1115E-04    0.1114E-04    0.1336E-08
  3060.95    0.1123E-04    0.1123E-04    0.1346E-08
  3063.27    0.1131E-04    0.1131E-04    0.1355E-08
  3065.60    0.1139E-04    0.1139E-04    0.1365E-08
  3067.92    0.1148E-04    0.1148E-04    0.1375E-08
  3070.24    0.1156E-04    0.1156E-04    0.1386E-08
  3072.57    0.1165E-04    0.1165E-04    0.1396E-08
  3074.89    0.1174E-04    0.1174E-04    0.1406E-08
  3077.22    0.1183E-04    0.1182E-04    0.1417E-08
  3079.54    0.1192E-04    0.1191E-04    0.1428E-08
  3081.87    0.1201E-04    0.1200E-04    0.1439E-08
  3084.19    0.1210E-04    0.1210E-04    0.1449E-08
  3086.52    0.1219E-04    0.1219E-04    0.1461E-08
  3088.84    0.1228E-04    0.1228E-04    0.1472E-08
  3091.17    0.1238E-04    0.1238E-04    0.1483E-08
  3093.49    0.1247E-04    0.1247E-04    0.1494E-08
  3095.82    0.1257E-04    0.1257E-04    0.1506E-08
  3098.14    0.1267E-04    0.1267E-04    0.1518E-08
  3100.47    0.1277E-04    0.1277E-04    0.1530E-08
  3102.79    0.1287E-04    0.1287E-04    0.1542E-08
  3105.12    0.1297E-04    0.1297E-04    0.1554E-08
  3107.44    0.1307E-04    0.1307E-04    0.1566E-08
  3109.77    0.1318E-04    0.1318E-04    0.1579E-08
  3112.09    0.1328E-04    0.1328E-04    0.1591E-08
  3114.41    0.1339E-04    0.1339E-04    0.1604E-08
  3116.74    0.1350E-04    0.1350E-04    0.1617E-08
  3119.06    0.1361E-04    0.1361E-04    0.1630E-08
  3121.39    0.1372E-04    0.1372E-04    0.1643E-08
  3123.71    0.1383E-04    0.1383E-04    0.1657E-08
  3126.04    0.1395E-04    0.1394E-04    0.1670E-08
  3128.36    0.1406E-04    0.1406E-04    0.1684E-08
  3130.69    0.1418E-04    0.1418E-04    0.1698E-08
  3133.01    0.1430E-04    0.1429E-04    0.1712E-08
  3135.34    0.1442E-04    0.1441E-04    0.1726E-08
  3137.66    0.1454E-04    0.1453E-04    0.1741E-08
  3139.99    0.1466E-04    0.1466E-04    0.1755E-08
  3142.31    0.1478E-04    0.1478E-04    0.1770E-08
  3144.64    0.1491E-04    0.1491E-04    0.1785E-08
  3146.96    0.1504E-04    0.1503E-04    0.1801E-08
  3149.29    0.1517E-04    0.1516E-04    0.1816E-08
  3151.61    0.1530E-04    0.1529E-04    0.1832E-08
  3153.94    0.1543E-04    0.1543E-04    0.1847E-08
  3156.26    0.1556E-04    0.1556E-04    0.1863E-08
  3158.58    0.1570E-04    0.1570E-04    0.1880E-08
  3160.91    0.1584E-04    0.1584E-04    0.1896E-08
  3163.23    0.1598E-04    0.1598E-04    0.1913E-08
  3165.56    0.1612E-04    0.1612E-04    0.1930E-08
  3167.88    0.1626E-04    0.1626E-04    0.1947E-08
  3170.21    0.1641E-04    0.1641E-04    0.1964E-08
  3172.53    0.1656E-04    0.1655E-04    0.1982E-08
  3174.86    0.1670E-04    0.1670E-04    0.2000E-08
  3177.18    0.1686E-04    0.1685E-04    0.2018E-08
  3179.51    0.1701E-04    0.1701E-04    0.2036E-08
  3181.83    0.1717E-04    0.1716E-04    0.2055E-08
  3184.16    0.1732E-04    0.1732E-04    0.2074E-08
  3186.48    0.1748E-04    0.1748E-04    0.2093E-08
  3188.81    0.1765E-04    0.1764E-04    0.2112E-08
  3191.13    0.1781E-04    0.1781E-04    0.2132E-08
  3193.46    0.1798E-04    0.1798E-04    0.2152E-08
  3195.78    0.1815E-04    0.1815E-04    0.2172E-08
  3198.11    0.1832E-04    0.1832E-04    0.2193E-08
  3200.43    0.1849E-04    0.1849E-04    0.2214E-08
  3202.75    0.1867E-04    0.1867E-04    0.2235E-08
  3205.08    0.1885E-04    0.1885E-04    0.2256E-08
  3207.40    0.1903E-04    0.1903E-04    0.2278E-08
  3209.73    0.1922E-04    0.1921E-04    0.2300E-08
  3212.05    0.1940E-04    0.1940E-04    0.2323E-08
  3214.38    0.1960E-04    0.1959E-04    0.2345E-08
  3216.70    0.1979E-04    0.1979E-04    0.2368E-08
  3219.03    0.1998E-04    0.1998E-04    0.2392E-08
  3221.35    0.2018E-04    0.2018E-04    0.2416E-08
  3223.68    0.2039E-04    0.2038E-04    0.2440E-08
  3226.00    0.2059E-04    0.2059E-04    0.2464E-08
  3228.33    0.2080E-04    0.2080E-04    0.2489E-08
  3230.65    0.2101E-04    0.2101E-04    0.2515E-08
  3232.98    0.2123E-04    0.2122E-04    0.2540E-08
  3235.30    0.2144E-04    0.2144E-04    0.2566E-08
  3237.63    0.2167E-04    0.2166E-04    0.2593E-08
  3239.95    0.2189E-04    0.2189E-04    0.2620E-08
  3242.28    0.2212E-04    0.2212E-04    0.2647E-08
  3244.60    0.2235E-04    0.2235E-04    0.2675E-08
  3246.92    0.2259E-04    0.2258E-04    0.2703E-08
  3249.25    0.2283E-04    0.2282E-04    0.2732E-08
  3251.57    0.2307E-04    0.2307E-04    0.2761E-08
  3253.90    0.2332E-04    0.2332E-04    0.2790E-08
  3256.22    0.2357E-04    0.2357E-04    0.2820E-08
  3258.55    0.2383E-04    0.2382E-04    0.2851E-08
  3260.87    0.2409E-04    0.2408E-04    0.2882E-08
  3263.20    0.2435E-04    0.2435E-04    0.2914E-08
  3265.52    0.2462E-04    0.2462E-04    0.2946E-08
  3267.85    0.2489E-04    0.2489E-04    0.2979E-08
  3270.17    0.2517E-04    0.2517E-04    0.3012E-08
  3272.50    0.2545E-04    0.2545E-04    0.3046E-08
  3274.82    0.2574E-04    0.2574E-04    0.3080E-08
  3277.15    0.2603E-04    0.2603E-04    0.3115E-08
  3279.47    0.2633E-04    0.2633E-04    0.3150E-08
  3281.80    0.2663E-04    0.2663E-04    0.3187E-08
  3284.12    0.2694E-04    0.2694E-04    0.3223E-08
  3286.45    0.2725E-04    0.2725E-04    0.3261E-08
  3288.77    0.2757E-04    0.2757E-04    0.3299E-08
  3291.10    0.2790E-04    0.2789E-04    0.3338E-08
  3293.42    0.2823E-04    0.2822E-04    0.3377E-08
  3295.74    0.2856E-04    0.2856E-04    0.3418E-08
  3298.07    0.2891E-04    0.2890E-04    0.3459E-08
  3300.39    0.2926E-04    0.2925E-04    0.3500E-08
  3302.72    0.2961E-04    0.2961E-04    0.3543E-08
  3305.04    0.2997E-04    0.2997E-04    0.3586E-08
  3307.37    0.3034E-04    0.3034E-04    0.3630E-08
  3309.69    0.3072E-04    0.3071E-04    0.3675E-08
  3312.02    0.3110E-04    0.3110E-04    0.3721E-08
  3314.34    0.3149E-04    0.3148E-04    0.3767E-08
  3316.67    0.3189E-04    0.3188E-04    0.3815E-08
  3318.99    0.3229E-04    0.3229E-04    0.3863E-08
  3321.32    0.3270E-04    0.3270E-04    0.3913E-08
  3323.64    0.3312E-04    0.3312E-04    0.3963E-08
  3325.97    0.3355E-04    0.3355E-04    0.4014E-08
  3328.29    0.3399E-04    0.3399E-04    0.4066E-08
  3330.62    0.3444E-04    0.3443E-04    0.4120E-08
  3332.94    0.3489E-04    0.3489E-04    0.4174E-08
  3335.27    0.3536E-04    0.3535E-04    0.4230E-08
  3337.59    0.3583E-04    0.3582E-04    0.4286E-08
  3339.91    0.3631E-04    0.3631E-04    0.4344E-08
  3342.24    0.3681E-04    0.3680E-04    0.4403E-08
  3344.56    0.3731E-04    0.3730E-04    0.4463E-08
  3346.89    0.3782E-04    0.3782E-04    0.4525E-08
  3349.21    0.3835E-04    0.3834E-04    0.4588E-08
  3351.54    0.3888E-04    0.3888E-04    0.4652E-08
  3353.86    0.3943E-04    0.3943E-04    0.4717E-08
  3356.19    0.3999E-04    0.3998E-04    0.4784E-08
  3358.51    0.4056E-04    0.4055E-04    0.4852E-08
  3360.84    0.4114E-04    0.4114E-04    0.4922E-08
  3363.16    0.4174E-04    0.4173E-04    0.4993E-08
  3365.49    0.4235E-04    0.4234E-04    0.5066E-08
  3367.81    0.4297E-04    0.4297E-04    0.5141E-08
  3370.14    0.4361E-04    0.4360E-04    0.5217E-08
  3372.46    0.4426E-04    0.4425E-04    0.5295E-08
  3374.79    0.4493E-04    0.4492E-04    0.5375E-08
  3377.11    0.4561E-04    0.4560E-04    0.5456E-08
  3379.44    0.4630E-04    0.4630E-04    0.5539E-08
  3381.76    0.4702E-04    0.4701E-04    0.5625E-08
  3384.08    0.4775E-04    0.4774E-04    0.5712E-08
  3386.41    0.4850E-04    0.4849E-04    0.5802E-08
  3388.73    0.4926E-04    0.4926E-04    0.5893E-08
  3391.06    0.5005E-04    0.5004E-04    0.5987E-08
  3393.38    0.5085E-04    0.5084E-04    0.6083E-08
  3395.71    0.5167E-04    0.5166E-04    0.6181E-08
  3398.03    0.5251E-04    0.5251E-04    0.6282E-08
  3400.36    0.5338E-04    0.5337E-04    0.6386E-08
  3402.68    0.5426E-04    0.5426E-04    0.6492E-08
  3405.01    0.5517E-04    0.5516E-04    0.6600E-08
  3407.33    0.5610E-04    0.5610E-04    0.6712E-08
  3409.66    0.5706E-04    0.5705E-04    0.6826E-08
  3411.98    0.5804E-04    0.5803E-04    0.6943E-08
  3414.31    0.5904E-04    0.5904E-04    0.7064E-08
  3416.63    0.6008E-04    0.6007E-04    0.7187E-08
  3418.96    0.6114E-04    0.6113E-04    0.7314E-08
  3421.28    0.6223E-04    0.6222E-04    0.7444E-08
  3423.61    0.6334E-04    0.6334E-04    0.7578E-08
  3425.93    0.6449E-04    0.6449E-04    0.7716E-08
  3428.25    0.6567E-04    0.6567E-04    0.7857E-08
  3430.58    0.6689E-04    0.6688E-04    0.8002E-08
  3432.90    0.6814E-04    0.6813E-04    0.8152E-08
  3435.23    0.6942E-04    0.6941E-04    0.8305E-08
  3437.55    0.7074E-04    0.7073E-04    0.8463E-08
  3439.88    0.7210E-04    0.7209E-04    0.8626E-08
  3442.20    0.7350E-04    0.7349E-04    0.8793E-08
  3444.53    0.7494E-04    0.7493E-04    0.8966E-08
  3446.85    0.7643E-04    0.7642E-04    0.9144E-08
  3449.18    0.7796E-04    0.7795E-04    0.9327E-08
  3451.50    0.7953E-04    0.7952E-04    0.9515E-08
  3453.83    0.8116E-04    0.8115E-04    0.9710E-08
  3456.15    0.8283E-04    0.8282E-04    0.9910E-08
  3458.48    0.8456E-04    0.8455E-04    0.1012E-07
  3460.80    0.8635E-04    0.8634E-04    0.1033E-07
  3463.13    0.8819E-04    0.8818E-04    0.1055E-07
  3465.45    0.9009E-04    0.9008E-04    0.1078E-07
  3467.78    0.9206E-04    0.9205E-04    0.1101E-07
  3470.10    0.9409E-04    0.9408E-04    0.1126E-07
  3472.42    0.9619E-04    0.9618E-04    0.1151E-07
  3474.75    0.9836E-04    0.9835E-04    0.1177E-07
  3477.07    0.1006E-03    0.1006E-03    0.1204E-07
  3479.40    0.1029E-03    0.1029E-03    0.1232E-07
  3481.72    0.1053E-03    0.1053E-03    0.1260E-07
  3484.05    0.1078E-03    0.1078E-03    0.1290E-07
  3486.37    0.1104E-03    0.1104E-03    0.1321E-07
  3488.70    0.1131E-03    0.1131E-03    0.1353E-07
  3491.02    0.1159E-03    0.1159E-03    0.1387E-07
  3493.35    0.1188E-03    0.1188E-03    0.1421E-07
  3495.67    0.1218E-03    0.1217E-03    0.1457E-07
  3498.00    0.1249E-03    0.1249E-03    0.1494E-07
  3500.32    0.1281E-03    0.1281E-03    0.1533E-07
  3502.65    0.1315E-03    0.1315E-03    0.1573E-07
  3504.97    0.1350E-03    0.1350E-03    0.1615E-07
  3507.30    0.1386E-03    0.1386E-03    0.1659E-07
  3509.62    0.1424E-03    0.1424E-03    0.1704E-07
  3511.95    0.1464E-03    0.1463E-03    0.1751E-07
  3514.27    0.1505E-03    0.1505E-03    0.1801E-07
  3516.59    0.1548E-03    0.1548E-03    0.1852E-07
  3518.92    0.1593E-03    0.1593E-03    0.1906E-07
  3521.24    0.1640E-03    0.1639E-03    0.1962E-07
  3523.57    0.1689E-03    0.1689E-03    0.2021E-07
  3525.89    0.1740E-03    0.1740E-03    0.2082E-07
  3528.22    0.1794E-03    0.1794E-03    0.2147E-07
  3530.54    0.1850E-03    0.1850E-03    0.2214E-07
  3532.87    0.1909E-03    0.1909E-03    0.2285E-07
  3535.19    0.1971E-03    0.1971E-03    0.2359E-07
  3537.52    0.2036E-03    0.2036E-03    0.2437E-07
  3539.84    0.2104E-03    0.2104E-03    0.2518E-07
  3542.17    0.2176E-03    0.2176E-03    0.2604E-07
  3544.49    0.2252E-03    0.2251E-03    0.2695E-07
  3546.82    0.2331E-03    0.2331E-03    0.2790E-07
  3549.14    0.2415E-03    0.2415E-03    0.2891E-07
  3551.47    0.2504E-03    0.2504E-03    0.2997E-07
  3553.79    0.2598E-03    0.2598E-03    0.3109E-07
  3556.12    0.2697E-03    0.2697E-03    0.3228E-07
  3558.44    0.2802E-03    0.2802E-03    0.3354E-07
  3560.77    0.2914E-03    0.2913E-03    0.3488E-07
  3563.09    0.3032E-03    0.3031E-03    0.3629E-07
  3565.41    0.3158E-03    0.3157E-03    0.3780E-07
  3567.74    0.3291E-03    0.3291E-03    0.3940E-07
  3570.06    0.3434E-03    0.3434E-03    0.4111E-07
  3572.39    0.3586E-03    0.3586E-03    0.4293E-07
  3574.71    0.3749E-03    0.3748E-03    0.4488E-07
  3577.04    0.3923E-03    0.3922E-03    0.4696E-07
  3579.36    0.4109E-03    0.4109E-03    0.4920E-07
  3581.69    0.4310E-03    0.4309E-03    0.5160E-07
  3584.01    0.4526E-03    0.4525E-03    0.5418E-07
  3586.34    0.4758E-03    0.4757E-03    0.5696E-07
  3588.66    0.5009E-03    0.5008E-03    0.5997E-07
  3590.99    0.5280E-03    0.5280E-03    0.6322E-07
  3593.31    0.5575E-03    0.5574E-03    0.6675E-07
  3595.64    0.5895E-03    0.5894E-03    0.7058E-07
  3597.96    0.6244E-03    0.6243E-03    0.7476E-07
  3600.29    0.6625E-03    0.6624E-03    0.7932E-07
  3602.61    0.7042E-03    0.7041E-03    0.8432E-07
  3604.94    0.7500E-03    0.7499E-03    0.8980E-07
  3607.26    0.8004E-03    0.8003E-03    0.9585E-07
  3609.58    0.8561E-03    0.8560E-03    0.1025E-06
  3611.91    0.9179E-03    0.9178E-03    0.1099E-06
  3614.23    0.9867E-03    0.9866E-03    0.1182E-06
  3616.56    0.1064E-02    0.1063E-02    0.1274E-06
  3618.88    0.1150E-02    0.1150E-02    0.1377E-06
  3621.21    0.1247E-02    0.1247E-02    0.1493E-06
  3623.53    0.1357E-02    0.1357E-02    0.1625E-06
  3625.86    0.1482E-02    0.1482E-02    0.1775E-06
  3628.18    0.1625E-02    0.1625E-02    0.1946E-06
  3630.51    0.1790E-02    0.1790E-02    0.2144E-06
  3632.83    0.1981E-02    0.1981E-02    0.2373E-06
  3635.16    0.2204E-02    0.2204E-02    0.2640E-06
  3637.48    0.2466E-02    0.2466E-02    0.2954E-06
  3639.81    0.2777E-02    0.2777E-02    0.3327E-06
  3642.13    0.3150E-02    0.3149E-02    0.3773E-06
  3644.46    0.3600E-02    0.3599E-02    0.4312E-06
  3646.78    0.4150E-02    0.4149E-02    0.4971E-06
  3649.11    0.4830E-02    0.4830E-02    0.5786E-06
  3651.43    0.5682E-02    0.5681E-02    0.6807E-06
  3653.75    0.6763E-02    0.6762E-02    0.8102E-06
  3656.08    0.8152E-02    0.8151E-02    0.9767E-06
  3658.40    0.9960E-02    0.9959E-02    0.1193E-05
  3660.73    0.1233E-01    0.1233E-01    0.1477E-05
  3663.05    0.1544E-01    0.1544E-01    0.1850E-05
  3665.38    0.1946E-01    0.1946E-01    0.2332E-05
  3667.70    0.2439E-01    0.2439E-01    0.2922E-05
  3670.03    0.2975E-01    0.2975E-01    0.3564E-05
  3672.35    0.3422E-01    0.3421E-01    0.4100E-05
  3674.68    0.3593E-01    0.3592E-01    0.4304E-05
  3677.00    0.3396E-01    0.3395E-01    0.4068E-05
  3679.33    0.2936E-01    0.2935E-01    0.3517E-05
  3681.65    0.2400E-01    0.2400E-01    0.2876E-05
  3683.98    0.1914E-01    0.1914E-01    0.2293E-05
  3686.30    0.1520E-01    0.1520E-01    0.1821E-05
  3688.63    0.1216E-01    0.1216E-01    0.1457E-05
  3690.95    0.9844E-02    0.9843E-02    0.1179E-05
  3693.28    0.8080E-02    0.8079E-02    0.9679E-06
  3695.60    0.6724E-02    0.6723E-02    0.8054E-06
  3697.92    0.5670E-02    0.5669E-02    0.6791E-06
  3700.25    0.4840E-02    0.4840E-02    0.5797E-06
  3702.57    0.4179E-02    0.4178E-02    0.5004E-06
  3704.90    0.3645E-02    0.3645E-02    0.4365E-06
  3707.22    0.3211E-02    0.3210E-02    0.3844E-06
  3709.55    0.2853E-02    0.2852E-02    0.3415E-06
  3711.87    0.2556E-02    0.2555E-02    0.3059E-06
  3714.20    0.2308E-02    0.2307E-02    0.2761E-06
  3716.52    0.2099E-02    0.2099E-02    0.2511E-06
  3718.85    0.1923E-02    0.1922E-02    0.2300E-06
  3721.17    0.1773E-02    0.1773E-02    0.2120E-06
  3723.50    0.1647E-02    0.1647E-02    0.1968E-06
  3725.82    0.1540E-02    0.1539E-02    0.1840E-06
  3728.15    0.1449E-02    0.1449E-02    0.1731E-06
  3730.47    0.1373E-02    0.1373E-02    0.1640E-06
  3732.80    0.1311E-02    0.1311E-02    0.1565E-06
  3735.12    0.1261E-02    0.1261E-02    0.1504E-06
  3737.45    0.1222E-02    0.1222E-02    0.1457E-06
  3739.77    0.1194E-02    0.1194E-02    0.1422E-06
  3742.09    0.1177E-02    0.1177E-02    0.1401E-06
  3744.42    0.1171E-02    0.1171E-02    0.1393E-06
  3746.74    0.1177E-02    0.1177E-02    0.1399E-06
  3749.07    0.1196E-02    0.1196E-02    0.1420E-06
  3751.39    0.1229E-02    0.1229E-02    0.1459E-06
  3753.72    0.1280E-02    0.1279E-02    0.1517E-06
  3756.04    0.1350E-02    0.1350E-02    0.1600E-06
  3758.37    0.1446E-02    0.1445E-02    0.1711E-06
  3760.69    0.1572E-02    0.1572E-02    0.1860E-06
  3763.02    0.1739E-02    0.1739E-02    0.2055E-06
  3765.34    0.1959E-02    0.1958E-02    0.2313E-06
  3767.67    0.2248E-02    0.2248E-02    0.2653E-06
  3769.99    0.2631E-02    0.2631E-02    0.3103E-06
  3772.32    0.3141E-02    0.3141E-02    0.3702E-06
  3774.64    0.3818E-02    0.3817E-02    0.4498E-06
  3776.97    0.4703E-02    0.4702E-02    0.5538E-06
  3779.29    0.5811E-02    0.5810E-02    0.6841E-06
  3781.62    0.7064E-02    0.7063E-02    0.8315E-06
  3783.94    0.8198E-02    0.8197E-02    0.9648E-06
  3786.26    0.8774E-02    0.8773E-02    0.1033E-05
  3788.59    0.8489E-02    0.8488E-02    0.9989E-06
  3790.91    0.7490E-02    0.7489E-02    0.8815E-06
  3793.24    0.6215E-02    0.6215E-02    0.7315E-06
  3795.56    0.5010E-02    0.5010E-02    0.5898E-06
  3797.89    0.4015E-02    0.4014E-02    0.4727E-06
  3800.21    0.3238E-02    0.3237E-02    0.3813E-06
  3802.54    0.2644E-02    0.2644E-02    0.3114E-06
  3804.86    0.2190E-02    0.2190E-02    0.2580E-06
  3807.19    0.1840E-02    0.1840E-02    0.2169E-06
  3809.51    0.1568E-02    0.1568E-02    0.1848E-06
  3811.84    0.1352E-02    0.1352E-02    0.1595E-06
  3814.16    0.1179E-02    0.1179E-02    0.1391E-06
  3816.49    0.1039E-02    0.1039E-02    0.1226E-06
  3818.81    0.9239E-03    0.9238E-03    0.1090E-06
  3821.14    0.8280E-03    0.8279E-03    0.9775E-07
  3823.46    0.7474E-03    0.7473E-03    0.8826E-07
  3825.79    0.6790E-03    0.6789E-03    0.8020E-07
  3828.11    0.6204E-03    0.6203E-03    0.7330E-07
  3830.44    0.5698E-03    0.5697E-03    0.6734E-07
  3832.76    0.5258E-03    0.5258E-03    0.6216E-07
  3835.08    0.4873E-03    0.4872E-03    0.5761E-07
  3837.41    0.4533E-03    0.4532E-03    0.5361E-07
  3839.73    0.4232E-03    0.4231E-03    0.5006E-07
  3842.06    0.3963E-03    0.3963E-03    0.4689E-07
  3844.38    0.3722E-03    0.3722E-03    0.4405E-07
  3846.71    0.3506E-03    0.3505E-03    0.4150E-07
  3849.03    0.3310E-03    0.3309E-03    0.3919E-07
