
 ------------------------------------------------------------
     resonance       Raman Scattering Plot
 ------------------------------------------------------------
 Excitation wavelength  514.50 nm
 Convolution lineshape is lorentzian  
 FWHM   20.00  1/cm
 ------------------------------------------------------------
 ------------------------------------------------------------
 # of frequencies :     3
 ------------------------------------------------------------
#  freq [ 1/cm]  S-tot [a.u.]S-real [a.u.]  S-imag [a.u.]
 ------------------------------------------------------------
   1  1591.50        0.8350        0.8347        0.0003
   2  3680.21      115.5505      115.5375        0.0129
   3  3783.86       28.4042       28.4010        0.0032
 ------------------------------------------------------------
  1533.82    0.2981E-04    0.2980E-04    0.1068E-07
  1536.13    0.3220E-04    0.3218E-04    0.1155E-07
  1538.45    0.3489E-04    0.3488E-04    0.1254E-07
  1540.76    0.3794E-04    0.3792E-04    0.1366E-07
  1543.08    0.4141E-04    0.4140E-04    0.1493E-07
  1545.39    0.4539E-04    0.4538E-04    0.1638E-07
  1547.71    0.4998E-04    0.4996E-04    0.1806E-07
  1550.02    0.5529E-04    0.5527E-04    0.2001E-07
  1552.34    0.6150E-04    0.6148E-04    0.2228E-07
  1554.65    0.6881E-04    0.6878E-04    0.2496E-07
  1556.96    0.7748E-04    0.7745E-04    0.2814E-07
  1559.28    0.8787E-04    0.8784E-04    0.3194E-07
  1561.59    0.1004E-03    0.1004E-03    0.3655E-07
  1563.91    0.1158E-03    0.1158E-03    0.4218E-07
  1566.22    0.1348E-03    0.1348E-03    0.4914E-07
  1568.54    0.1587E-03    0.1586E-03    0.5787E-07
  1570.85    0.1889E-03    0.1888E-03    0.6895E-07
  1573.17    0.2278E-03    0.2277E-03    0.8319E-07
  1575.48    0.2783E-03    0.2782E-03    0.1017E-06
  1577.80    0.3446E-03    0.3445E-03    0.1260E-06
  1580.11    0.4315E-03    0.4314E-03    0.1578E-06
  1582.43    0.5434E-03    0.5432E-03    0.1988E-06
  1584.74    0.6798E-03    0.6796E-03    0.2488E-06
  1587.06    0.8269E-03    0.8266E-03    0.3026E-06
  1589.37    0.9472E-03    0.9469E-03    0.3467E-06
  1591.68    0.9899E-03    0.9896E-03    0.3624E-06
  1594.00    0.9323E-03    0.9319E-03    0.3412E-06
  1596.31    0.8044E-03    0.8041E-03    0.2944E-06
  1598.63    0.6571E-03    0.6569E-03    0.2405E-06
  1600.94    0.5241E-03    0.5239E-03    0.1917E-06
  1603.26    0.4164E-03    0.4162E-03    0.1523E-06
  1605.57    0.3330E-03    0.3329E-03    0.1217E-06
  1607.89    0.2695E-03    0.2694E-03    0.9847E-07
  1610.20    0.2210E-03    0.2209E-03    0.8071E-07
  1612.52    0.1837E-03    0.1836E-03    0.6703E-07
  1614.83    0.1546E-03    0.1545E-03    0.5637E-07
  1617.15    0.1316E-03    0.1316E-03    0.4795E-07
  1619.46    0.1132E-03    0.1132E-03    0.4122E-07
  1621.78    0.9836E-04    0.9832E-04    0.3577E-07
  1624.09    0.8617E-04    0.8614E-04    0.3131E-07
  1626.40    0.7608E-04    0.7606E-04    0.2761E-07
  1628.72    0.6765E-04    0.6763E-04    0.2452E-07
  1631.03    0.6054E-04    0.6051E-04    0.2191E-07
  1633.35    0.5448E-04    0.5446E-04    0.1969E-07
  1635.66    0.4930E-04    0.4928E-04    0.1779E-07
  1637.98    0.4482E-04    0.4480E-04    0.1615E-07
  1640.29    0.4093E-04    0.4092E-04    0.1473E-07
  1642.61    0.3753E-04    0.3752E-04    0.1348E-07
  1644.92    0.3455E-04    0.3453E-04    0.1239E-07
  1647.24    0.3191E-04    0.3190E-04    0.1142E-07
  1649.55    0.2957E-04    0.2956E-04    0.1056E-07
  1651.87    0.2748E-04    0.2747E-04    0.9799E-08
  1654.18    0.2562E-04    0.2561E-04    0.9115E-08
  1656.50    0.2394E-04    0.2393E-04    0.8500E-08
  1658.81    0.2243E-04    0.2242E-04    0.7946E-08
  1661.12    0.2106E-04    0.2106E-04    0.7445E-08
  1663.44    0.1983E-04    0.1982E-04    0.6990E-08
  1665.75    0.1870E-04    0.1869E-04    0.6576E-08
  1668.07    0.1767E-04    0.1766E-04    0.6199E-08
  1670.38    0.1673E-04    0.1672E-04    0.5853E-08
  1672.70    0.1586E-04    0.1586E-04    0.5536E-08
  1675.01    0.1507E-04    0.1506E-04    0.5244E-08
  1677.33    0.1434E-04    0.1433E-04    0.4976E-08
  1679.64    0.1366E-04    0.1366E-04    0.4727E-08
  1681.96    0.1304E-04    0.1303E-04    0.4498E-08
  1684.27    0.1246E-04    0.1245E-04    0.4285E-08
  1686.59    0.1192E-04    0.1191E-04    0.4087E-08
  1688.90    0.1142E-04    0.1141E-04    0.3903E-08
  1691.22    0.1095E-04    0.1095E-04    0.3732E-08
  1693.53    0.1052E-04    0.1051E-04    0.3572E-08
  1695.85    0.1011E-04    0.1011E-04    0.3422E-08
  1698.16    0.9729E-05    0.9725E-05    0.3282E-08
  1700.47    0.9372E-05    0.9369E-05    0.3151E-08
  1702.79    0.9037E-05    0.9034E-05    0.3027E-08
  1705.10    0.8723E-05    0.8720E-05    0.2912E-08
  1707.42    0.8427E-05    0.8424E-05    0.2802E-08
  1709.73    0.8148E-05    0.8145E-05    0.2700E-08
  1712.05    0.7885E-05    0.7882E-05    0.2603E-08
  1714.36    0.7637E-05    0.7634E-05    0.2511E-08
  1716.68    0.7402E-05    0.7400E-05    0.2425E-08
  1718.99    0.7181E-05    0.7178E-05    0.2343E-08
  1721.31    0.6971E-05    0.6969E-05    0.2265E-08
  1723.62    0.6772E-05    0.6770E-05    0.2192E-08
  1725.94    0.6583E-05    0.6581E-05    0.2122E-08
  1728.25    0.6404E-05    0.6402E-05    0.2056E-08
  1730.57    0.6234E-05    0.6232E-05    0.1993E-08
  1732.88    0.6072E-05    0.6070E-05    0.1933E-08
  1735.19    0.5918E-05    0.5917E-05    0.1876E-08
  1737.51    0.5772E-05    0.5770E-05    0.1821E-08
  1739.82    0.5632E-05    0.5630E-05    0.1769E-08
  1742.14    0.5499E-05    0.5497E-05    0.1720E-08
  1744.45    0.5372E-05    0.5370E-05    0.1673E-08
  1746.77    0.5251E-05    0.5249E-05    0.1627E-08
  1749.08    0.5135E-05    0.5133E-05    0.1584E-08
  1751.40    0.5024E-05    0.5022E-05    0.1543E-08
  1753.71    0.4918E-05    0.4916E-05    0.1503E-08
  1756.03    0.4816E-05    0.4815E-05    0.1466E-08
  1758.34    0.4719E-05    0.4718E-05    0.1429E-08
  1760.66    0.4626E-05    0.4625E-05    0.1394E-08
  1762.97    0.4537E-05    0.4535E-05    0.1361E-08
  1765.29    0.4451E-05    0.4450E-05    0.1329E-08
  1767.60    0.4369E-05    0.4368E-05    0.1298E-08
  1769.91    0.4290E-05    0.4289E-05    0.1268E-08
  1772.23    0.4214E-05    0.4213E-05    0.1240E-08
  1774.54    0.4142E-05    0.4140E-05    0.1213E-08
  1776.86    0.4072E-05    0.4070E-05    0.1186E-08
  1779.17    0.4004E-05    0.4003E-05    0.1161E-08
  1781.49    0.3940E-05    0.3938E-05    0.1136E-08
  1783.80    0.3877E-05    0.3876E-05    0.1113E-08
  1786.12    0.3817E-05    0.3816E-05    0.1090E-08
  1788.43    0.3760E-05    0.3758E-05    0.1068E-08
  1790.75    0.3704E-05    0.3703E-05    0.1047E-08
  1793.06    0.3650E-05    0.3649E-05    0.1027E-08
  1795.38    0.3598E-05    0.3597E-05    0.1007E-08
  1797.69    0.3549E-05    0.3548E-05    0.9879E-09
  1800.01    0.3500E-05    0.3499E-05    0.9695E-09
  1802.32    0.3454E-05    0.3453E-05    0.9517E-09
  1804.63    0.3409E-05    0.3408E-05    0.9345E-09
  1806.95    0.3366E-05    0.3365E-05    0.9179E-09
  1809.26    0.3324E-05    0.3323E-05    0.9018E-09
  1811.58    0.3284E-05    0.3283E-05    0.8862E-09
  1813.89    0.3244E-05    0.3244E-05    0.8711E-09
  1816.21    0.3207E-05    0.3206E-05    0.8565E-09
  1818.52    0.3170E-05    0.3169E-05    0.8423E-09
  1820.84    0.3135E-05    0.3134E-05    0.8286E-09
  1823.15    0.3101E-05    0.3100E-05    0.8153E-09
  1825.47    0.3068E-05    0.3067E-05    0.8024E-09
  1827.78    0.3036E-05    0.3035E-05    0.7899E-09
  1830.10    0.3005E-05    0.3004E-05    0.7778E-09
  1832.41    0.2975E-05    0.2974E-05    0.7660E-09
  1834.73    0.2946E-05    0.2945E-05    0.7545E-09
  1837.04    0.2918E-05    0.2917E-05    0.7434E-09
  1839.35    0.2890E-05    0.2890E-05    0.7327E-09
  1841.67    0.2864E-05    0.2863E-05    0.7222E-09
  1843.98    0.2839E-05    0.2838E-05    0.7120E-09
  1846.30    0.2814E-05    0.2813E-05    0.7021E-09
  1848.61    0.2790E-05    0.2789E-05    0.6925E-09
  1850.93    0.2767E-05    0.2766E-05    0.6832E-09
  1853.24    0.2744E-05    0.2743E-05    0.6741E-09
  1855.56    0.2722E-05    0.2722E-05    0.6652E-09
  1857.87    0.2701E-05    0.2700E-05    0.6566E-09
  1860.19    0.2680E-05    0.2680E-05    0.6483E-09
  1862.50    0.2660E-05    0.2660E-05    0.6401E-09
  1864.82    0.2641E-05    0.2641E-05    0.6322E-09
  1867.13    0.2622E-05    0.2622E-05    0.6245E-09
  1869.45    0.2604E-05    0.2604E-05    0.6170E-09
  1871.76    0.2587E-05    0.2586E-05    0.6096E-09
  1874.07    0.2569E-05    0.2569E-05    0.6025E-09
  1876.39    0.2553E-05    0.2552E-05    0.5956E-09
  1878.70    0.2537E-05    0.2536E-05    0.5888E-09
  1881.02    0.2521E-05    0.2520E-05    0.5822E-09
  1883.33    0.2506E-05    0.2505E-05    0.5758E-09
  1885.65    0.2491E-05    0.2491E-05    0.5695E-09
  1887.96    0.2477E-05    0.2476E-05    0.5634E-09
  1890.28    0.2463E-05    0.2462E-05    0.5574E-09
  1892.59    0.2450E-05    0.2449E-05    0.5516E-09
  1894.91    0.2436E-05    0.2436E-05    0.5459E-09
  1897.22    0.2424E-05    0.2423E-05    0.5404E-09
  1899.54    0.2412E-05    0.2411E-05    0.5350E-09
  1901.85    0.2400E-05    0.2399E-05    0.5297E-09
  1904.17    0.2388E-05    0.2388E-05    0.5246E-09
  1906.48    0.2377E-05    0.2376E-05    0.5196E-09
  1908.79    0.2366E-05    0.2365E-05    0.5147E-09
  1911.11    0.2355E-05    0.2355E-05    0.5099E-09
  1913.42    0.2345E-05    0.2345E-05    0.5052E-09
  1915.74    0.2335E-05    0.2335E-05    0.5007E-09
  1918.05    0.2326E-05    0.2325E-05    0.4962E-09
  1920.37    0.2316E-05    0.2316E-05    0.4919E-09
  1922.68    0.2307E-05    0.2307E-05    0.4876E-09
  1925.00    0.2298E-05    0.2298E-05    0.4835E-09
  1927.31    0.2290E-05    0.2289E-05    0.4794E-09
  1929.63    0.2282E-05    0.2281E-05    0.4754E-09
  1931.94    0.2274E-05    0.2273E-05    0.4716E-09
  1934.26    0.2266E-05    0.2265E-05    0.4678E-09
  1936.57    0.2258E-05    0.2258E-05    0.4641E-09
  1938.89    0.2251E-05    0.2251E-05    0.4605E-09
  1941.20    0.2244E-05    0.2244E-05    0.4569E-09
  1943.51    0.2237E-05    0.2237E-05    0.4535E-09
  1945.83    0.2231E-05    0.2230E-05    0.4501E-09
  1948.14    0.2224E-05    0.2224E-05    0.4468E-09
  1950.46    0.2218E-05    0.2218E-05    0.4436E-09
  1952.77    0.2212E-05    0.2212E-05    0.4404E-09
  1955.09    0.2207E-05    0.2206E-05    0.4373E-09
  1957.40    0.2201E-05    0.2201E-05    0.4343E-09
  1959.72    0.2196E-05    0.2195E-05    0.4314E-09
  1962.03    0.2191E-05    0.2190E-05    0.4285E-09
  1964.35    0.2186E-05    0.2185E-05    0.4257E-09
  1966.66    0.2181E-05    0.2180E-05    0.4229E-09
  1968.98    0.2176E-05    0.2176E-05    0.4202E-09
  1971.29    0.2172E-05    0.2171E-05    0.4176E-09
  1973.61    0.2167E-05    0.2167E-05    0.4150E-09
  1975.92    0.2163E-05    0.2163E-05    0.4125E-09
  1978.23    0.2159E-05    0.2159E-05    0.4100E-09
  1980.55    0.2156E-05    0.2155E-05    0.4076E-09
  1982.86    0.2152E-05    0.2152E-05    0.4052E-09
  1985.18    0.2148E-05    0.2148E-05    0.4029E-09
  1987.49    0.2145E-05    0.2145E-05    0.4006E-09
  1989.81    0.2142E-05    0.2141E-05    0.3984E-09
  1992.12    0.2139E-05    0.2138E-05    0.3962E-09
  1994.44    0.2136E-05    0.2136E-05    0.3941E-09
  1996.75    0.2133E-05    0.2133E-05    0.3921E-09
  1999.07    0.2131E-05    0.2130E-05    0.3900E-09
  2001.38    0.2128E-05    0.2128E-05    0.3880E-09
  2003.70    0.2126E-05    0.2125E-05    0.3861E-09
  2006.01    0.2123E-05    0.2123E-05    0.3842E-09
  2008.33    0.2121E-05    0.2121E-05    0.3823E-09
  2010.64    0.2119E-05    0.2119E-05    0.3805E-09
  2012.95    0.2117E-05    0.2117E-05    0.3787E-09
  2015.27    0.2116E-05    0.2115E-05    0.3770E-09
  2017.58    0.2114E-05    0.2114E-05    0.3753E-09
  2019.90    0.2112E-05    0.2112E-05    0.3736E-09
  2022.21    0.2111E-05    0.2111E-05    0.3720E-09
  2024.53    0.2110E-05    0.2109E-05    0.3704E-09
  2026.84    0.2109E-05    0.2108E-05    0.3689E-09
  2029.16    0.2107E-05    0.2107E-05    0.3673E-09
  2031.47    0.2106E-05    0.2106E-05    0.3659E-09
  2033.79    0.2106E-05    0.2105E-05    0.3644E-09
  2036.10    0.2105E-05    0.2104E-05    0.3630E-09
  2038.42    0.2104E-05    0.2104E-05    0.3616E-09
  2040.73    0.2104E-05    0.2103E-05    0.3602E-09
  2043.05    0.2103E-05    0.2103E-05    0.3589E-09
  2045.36    0.2103E-05    0.2102E-05    0.3576E-09
  2047.67    0.2102E-05    0.2102E-05    0.3563E-09
  2049.99    0.2102E-05    0.2102E-05    0.3551E-09
  2052.30    0.2102E-05    0.2102E-05    0.3539E-09
  2054.62    0.2102E-05    0.2102E-05    0.3527E-09
  2056.93    0.2102E-05    0.2102E-05    0.3516E-09
  2059.25    0.2102E-05    0.2102E-05    0.3504E-09
  2061.56    0.2102E-05    0.2102E-05    0.3493E-09
  2063.88    0.2103E-05    0.2102E-05    0.3482E-09
  2066.19    0.2103E-05    0.2103E-05    0.3472E-09
  2068.51    0.2104E-05    0.2103E-05    0.3462E-09
  2070.82    0.2104E-05    0.2104E-05    0.3452E-09
  2073.14    0.2105E-05    0.2105E-05    0.3442E-09
  2075.45    0.2106E-05    0.2105E-05    0.3432E-09
  2077.77    0.2106E-05    0.2106E-05    0.3423E-09
  2080.08    0.2107E-05    0.2107E-05    0.3414E-09
  2082.39    0.2108E-05    0.2108E-05    0.3405E-09
  2084.71    0.2109E-05    0.2109E-05    0.3397E-09
  2087.02    0.2110E-05    0.2110E-05    0.3388E-09
  2089.34    0.2112E-05    0.2111E-05    0.3380E-09
  2091.65    0.2113E-05    0.2112E-05    0.3372E-09
  2093.97    0.2114E-05    0.2114E-05    0.3364E-09
  2096.28    0.2116E-05    0.2115E-05    0.3357E-09
  2098.60    0.2117E-05    0.2117E-05    0.3349E-09
  2100.91    0.2119E-05    0.2118E-05    0.3342E-09
  2103.23    0.2120E-05    0.2120E-05    0.3335E-09
  2105.54    0.2122E-05    0.2122E-05    0.3329E-09
  2107.86    0.2124E-05    0.2123E-05    0.3322E-09
  2110.17    0.2125E-05    0.2125E-05    0.3316E-09
  2112.49    0.2127E-05    0.2127E-05    0.3310E-09
  2114.80    0.2129E-05    0.2129E-05    0.3304E-09
  2117.11    0.2131E-05    0.2131E-05    0.3298E-09
  2119.43    0.2133E-05    0.2133E-05    0.3292E-09
  2121.74    0.2135E-05    0.2135E-05    0.3287E-09
  2124.06    0.2138E-05    0.2137E-05    0.3281E-09
  2126.37    0.2140E-05    0.2140E-05    0.3276E-09
  2128.69    0.2142E-05    0.2142E-05    0.3271E-09
  2131.00    0.2145E-05    0.2144E-05    0.3267E-09
  2133.32    0.2147E-05    0.2147E-05    0.3262E-09
  2135.63    0.2150E-05    0.2149E-05    0.3257E-09
  2137.95    0.2152E-05    0.2152E-05    0.3253E-09
  2140.26    0.2155E-05    0.2155E-05    0.3249E-09
  2142.58    0.2158E-05    0.2157E-05    0.3245E-09
  2144.89    0.2160E-05    0.2160E-05    0.3241E-09
  2147.21    0.2163E-05    0.2163E-05    0.3238E-09
  2149.52    0.2166E-05    0.2166E-05    0.3234E-09
  2151.84    0.2169E-05    0.2169E-05    0.3231E-09
  2154.15    0.2172E-05    0.2172E-05    0.3227E-09
  2156.46    0.2175E-05    0.2175E-05    0.3224E-09
  2158.78    0.2178E-05    0.2178E-05    0.3221E-09
  2161.09    0.2181E-05    0.2181E-05    0.3219E-09
  2163.41    0.2184E-05    0.2184E-05    0.3216E-09
  2165.72    0.2188E-05    0.2187E-05    0.3213E-09
  2168.04    0.2191E-05    0.2191E-05    0.3211E-09
  2170.35    0.2194E-05    0.2194E-05    0.3209E-09
  2172.67    0.2198E-05    0.2197E-05    0.3207E-09
  2174.98    0.2201E-05    0.2201E-05    0.3205E-09
  2177.30    0.2205E-05    0.2204E-05    0.3203E-09
  2179.61    0.2208E-05    0.2208E-05    0.3201E-09
  2181.93    0.2212E-05    0.2212E-05    0.3199E-09
  2184.24    0.2216E-05    0.2215E-05    0.3198E-09
  2186.56    0.2219E-05    0.2219E-05    0.3197E-09
  2188.87    0.2223E-05    0.2223E-05    0.3195E-09
  2191.18    0.2227E-05    0.2227E-05    0.3194E-09
  2193.50    0.2231E-05    0.2231E-05    0.3193E-09
  2195.81    0.2235E-05    0.2235E-05    0.3192E-09
  2198.13    0.2239E-05    0.2239E-05    0.3192E-09
  2200.44    0.2243E-05    0.2243E-05    0.3191E-09
  2202.76    0.2247E-05    0.2247E-05    0.3190E-09
  2205.07    0.2251E-05    0.2251E-05    0.3190E-09
  2207.39    0.2256E-05    0.2255E-05    0.3190E-09
  2209.70    0.2260E-05    0.2259E-05    0.3190E-09
  2212.02    0.2264E-05    0.2264E-05    0.3189E-09
  2214.33    0.2268E-05    0.2268E-05    0.3190E-09
  2216.65    0.2273E-05    0.2273E-05    0.3190E-09
  2218.96    0.2277E-05    0.2277E-05    0.3190E-09
  2221.28    0.2282E-05    0.2282E-05    0.3190E-09
  2223.59    0.2286E-05    0.2286E-05    0.3191E-09
  2225.90    0.2291E-05    0.2291E-05    0.3191E-09
  2228.22    0.2296E-05    0.2295E-05    0.3192E-09
  2230.53    0.2300E-05    0.2300E-05    0.3193E-09
  2232.85    0.2305E-05    0.2305E-05    0.3194E-09
  2235.16    0.2310E-05    0.2310E-05    0.3195E-09
  2237.48    0.2315E-05    0.2315E-05    0.3196E-09
  2239.79    0.2320E-05    0.2320E-05    0.3197E-09
  2242.11    0.2325E-05    0.2324E-05    0.3198E-09
  2244.42    0.2330E-05    0.2329E-05    0.3200E-09
  2246.74    0.2335E-05    0.2335E-05    0.3201E-09
  2249.05    0.2340E-05    0.2340E-05    0.3203E-09
  2251.37    0.2345E-05    0.2345E-05    0.3205E-09
  2253.68    0.2350E-05    0.2350E-05    0.3207E-09
  2256.00    0.2356E-05    0.2355E-05    0.3208E-09
  2258.31    0.2361E-05    0.2361E-05    0.3210E-09
  2260.62    0.2366E-05    0.2366E-05    0.3213E-09
  2262.94    0.2372E-05    0.2371E-05    0.3215E-09
  2265.25    0.2377E-05    0.2377E-05    0.3217E-09
  2267.57    0.2383E-05    0.2382E-05    0.3219E-09
  2269.88    0.2388E-05    0.2388E-05    0.3222E-09
  2272.20    0.2394E-05    0.2394E-05    0.3224E-09
  2274.51    0.2400E-05    0.2399E-05    0.3227E-09
  2276.83    0.2405E-05    0.2405E-05    0.3230E-09
  2279.14    0.2411E-05    0.2411E-05    0.3233E-09
  2281.46    0.2417E-05    0.2416E-05    0.3236E-09
  2283.77    0.2423E-05    0.2422E-05    0.3239E-09
  2286.09    0.2429E-05    0.2428E-05    0.3242E-09
  2288.40    0.2435E-05    0.2434E-05    0.3245E-09
  2290.72    0.2441E-05    0.2440E-05    0.3248E-09
  2293.03    0.2447E-05    0.2446E-05    0.3252E-09
  2295.34    0.2453E-05    0.2452E-05    0.3255E-09
  2297.66    0.2459E-05    0.2459E-05    0.3259E-09
  2299.97    0.2465E-05    0.2465E-05    0.3262E-09
  2302.29    0.2471E-05    0.2471E-05    0.3266E-09
  2304.60    0.2478E-05    0.2477E-05    0.3270E-09
  2306.92    0.2484E-05    0.2484E-05    0.3274E-09
  2309.23    0.2490E-05    0.2490E-05    0.3278E-09
  2311.55    0.2497E-05    0.2497E-05    0.3282E-09
  2313.86    0.2503E-05    0.2503E-05    0.3286E-09
  2316.18    0.2510E-05    0.2510E-05    0.3291E-09
  2318.49    0.2517E-05    0.2516E-05    0.3295E-09
  2320.81    0.2523E-05    0.2523E-05    0.3299E-09
  2323.12    0.2530E-05    0.2530E-05    0.3304E-09
  2325.44    0.2537E-05    0.2536E-05    0.3309E-09
  2327.75    0.2543E-05    0.2543E-05    0.3313E-09
  2330.06    0.2550E-05    0.2550E-05    0.3318E-09
  2332.38    0.2557E-05    0.2557E-05    0.3323E-09
  2334.69    0.2564E-05    0.2564E-05    0.3328E-09
  2337.01    0.2571E-05    0.2571E-05    0.3333E-09
  2339.32    0.2578E-05    0.2578E-05    0.3338E-09
  2341.64    0.2585E-05    0.2585E-05    0.3343E-09
  2343.95    0.2593E-05    0.2592E-05    0.3348E-09
  2346.27    0.2600E-05    0.2599E-05    0.3354E-09
  2348.58    0.2607E-05    0.2607E-05    0.3359E-09
  2350.90    0.2614E-05    0.2614E-05    0.3365E-09
  2353.21    0.2622E-05    0.2621E-05    0.3370E-09
  2355.53    0.2629E-05    0.2629E-05    0.3376E-09
  2357.84    0.2637E-05    0.2636E-05    0.3382E-09
  2360.16    0.2644E-05    0.2644E-05    0.3388E-09
  2362.47    0.2652E-05    0.2652E-05    0.3394E-09
  2364.78    0.2660E-05    0.2659E-05    0.3400E-09
  2367.10    0.2667E-05    0.2667E-05    0.3406E-09
  2369.41    0.2675E-05    0.2675E-05    0.3412E-09
  2371.73    0.2683E-05    0.2682E-05    0.3419E-09
  2374.04    0.2691E-05    0.2690E-05    0.3425E-09
  2376.36    0.2699E-05    0.2698E-05    0.3431E-09
  2378.67    0.2707E-05    0.2706E-05    0.3438E-09
  2380.99    0.2715E-05    0.2714E-05    0.3445E-09
  2383.30    0.2723E-05    0.2722E-05    0.3451E-09
  2385.62    0.2731E-05    0.2731E-05    0.3458E-09
  2387.93    0.2739E-05    0.2739E-05    0.3465E-09
  2390.25    0.2747E-05    0.2747E-05    0.3472E-09
  2392.56    0.2756E-05    0.2755E-05    0.3479E-09
  2394.88    0.2764E-05    0.2764E-05    0.3486E-09
  2397.19    0.2772E-05    0.2772E-05    0.3493E-09
  2399.50    0.2781E-05    0.2781E-05    0.3501E-09
  2401.82    0.2789E-05    0.2789E-05    0.3508E-09
  2404.13    0.2798E-05    0.2798E-05    0.3515E-09
  2406.45    0.2807E-05    0.2806E-05    0.3523E-09
  2408.76    0.2815E-05    0.2815E-05    0.3531E-09
  2411.08    0.2824E-05    0.2824E-05    0.3538E-09
  2413.39    0.2833E-05    0.2833E-05    0.3546E-09
  2415.71    0.2842E-05    0.2842E-05    0.3554E-09
  2418.02    0.2851E-05    0.2851E-05    0.3562E-09
  2420.34    0.2860E-05    0.2860E-05    0.3570E-09
  2422.65    0.2869E-05    0.2869E-05    0.3578E-09
  2424.97    0.2878E-05    0.2878E-05    0.3586E-09
  2427.28    0.2887E-05    0.2887E-05    0.3595E-09
  2429.60    0.2897E-05    0.2896E-05    0.3603E-09
  2431.91    0.2906E-05    0.2906E-05    0.3611E-09
  2434.22    0.2915E-05    0.2915E-05    0.3620E-09
  2436.54    0.2925E-05    0.2924E-05    0.3629E-09
  2438.85    0.2934E-05    0.2934E-05    0.3637E-09
  2441.17    0.2944E-05    0.2944E-05    0.3646E-09
  2443.48    0.2954E-05    0.2953E-05    0.3655E-09
  2445.80    0.2963E-05    0.2963E-05    0.3664E-09
  2448.11    0.2973E-05    0.2973E-05    0.3673E-09
  2450.43    0.2983E-05    0.2982E-05    0.3682E-09
  2452.74    0.2993E-05    0.2992E-05    0.3692E-09
  2455.06    0.3003E-05    0.3002E-05    0.3701E-09
  2457.37    0.3013E-05    0.3012E-05    0.3710E-09
  2459.69    0.3023E-05    0.3022E-05    0.3720E-09
  2462.00    0.3033E-05    0.3033E-05    0.3730E-09
  2464.32    0.3043E-05    0.3043E-05    0.3739E-09
  2466.63    0.3053E-05    0.3053E-05    0.3749E-09
  2468.94    0.3064E-05    0.3063E-05    0.3759E-09
  2471.26    0.3074E-05    0.3074E-05    0.3769E-09
  2473.57    0.3085E-05    0.3084E-05    0.3779E-09
  2475.89    0.3095E-05    0.3095E-05    0.3789E-09
  2478.20    0.3106E-05    0.3106E-05    0.3799E-09
  2480.52    0.3117E-05    0.3116E-05    0.3810E-09
  2482.83    0.3127E-05    0.3127E-05    0.3820E-09
  2485.15    0.3138E-05    0.3138E-05    0.3831E-09
  2487.46    0.3149E-05    0.3149E-05    0.3841E-09
  2489.78    0.3160E-05    0.3160E-05    0.3852E-09
  2492.09    0.3171E-05    0.3171E-05    0.3863E-09
  2494.41    0.3182E-05    0.3182E-05    0.3874E-09
  2496.72    0.3194E-05    0.3193E-05    0.3885E-09
  2499.04    0.3205E-05    0.3205E-05    0.3896E-09
  2501.35    0.3216E-05    0.3216E-05    0.3907E-09
  2503.66    0.3228E-05    0.3227E-05    0.3918E-09
  2505.98    0.3239E-05    0.3239E-05    0.3929E-09
  2508.29    0.3251E-05    0.3250E-05    0.3941E-09
  2510.61    0.3262E-05    0.3262E-05    0.3952E-09
  2512.92    0.3274E-05    0.3274E-05    0.3964E-09
  2515.24    0.3286E-05    0.3286E-05    0.3976E-09
  2517.55    0.3298E-05    0.3297E-05    0.3988E-09
  2519.87    0.3310E-05    0.3309E-05    0.4000E-09
  2522.18    0.3322E-05    0.3321E-05    0.4012E-09
  2524.50    0.3334E-05    0.3334E-05    0.4024E-09
  2526.81    0.3346E-05    0.3346E-05    0.4036E-09
  2529.13    0.3358E-05    0.3358E-05    0.4048E-09
  2531.44    0.3371E-05    0.3370E-05    0.4061E-09
  2533.76    0.3383E-05    0.3383E-05    0.4073E-09
  2536.07    0.3396E-05    0.3395E-05    0.4086E-09
  2538.38    0.3408E-05    0.3408E-05    0.4099E-09
  2540.70    0.3421E-05    0.3421E-05    0.4112E-09
  2543.01    0.3434E-05    0.3433E-05    0.4124E-09
  2545.33    0.3447E-05    0.3446E-05    0.4138E-09
  2547.64    0.3460E-05    0.3459E-05    0.4151E-09
  2549.96    0.3473E-05    0.3472E-05    0.4164E-09
  2552.27    0.3486E-05    0.3485E-05    0.4177E-09
  2554.59    0.3499E-05    0.3499E-05    0.4191E-09
  2556.90    0.3512E-05    0.3512E-05    0.4204E-09
  2559.22    0.3526E-05    0.3525E-05    0.4218E-09
  2561.53    0.3539E-05    0.3539E-05    0.4232E-09
  2563.85    0.3553E-05    0.3552E-05    0.4246E-09
  2566.16    0.3566E-05    0.3566E-05    0.4260E-09
  2568.48    0.3580E-05    0.3580E-05    0.4274E-09
  2570.79    0.3594E-05    0.3593E-05    0.4288E-09
  2573.10    0.3608E-05    0.3607E-05    0.4303E-09
  2575.42    0.3622E-05    0.3621E-05    0.4317E-09
  2577.73    0.3636E-05    0.3636E-05    0.4332E-09
  2580.05    0.3650E-05    0.3650E-05    0.4346E-09
  2582.36    0.3664E-05    0.3664E-05    0.4361E-09
  2584.68    0.3679E-05    0.3678E-05    0.4376E-09
  2586.99    0.3693E-05    0.3693E-05    0.4391E-09
  2589.31    0.3708E-05    0.3707E-05    0.4406E-09
  2591.62    0.3723E-05    0.3722E-05    0.4422E-09
  2593.94    0.3737E-05    0.3737E-05    0.4437E-09
  2596.25    0.3752E-05    0.3752E-05    0.4452E-09
  2598.57    0.3767E-05    0.3767E-05    0.4468E-09
  2600.88    0.3782E-05    0.3782E-05    0.4484E-09
  2603.20    0.3798E-05    0.3797E-05    0.4500E-09
  2605.51    0.3813E-05    0.3812E-05    0.4516E-09
  2607.82    0.3828E-05    0.3828E-05    0.4532E-09
  2610.14    0.3844E-05    0.3843E-05    0.4548E-09
  2612.45    0.3859E-05    0.3859E-05    0.4565E-09
  2614.77    0.3875E-05    0.3875E-05    0.4581E-09
  2617.08    0.3891E-05    0.3890E-05    0.4598E-09
  2619.40    0.3907E-05    0.3906E-05    0.4614E-09
  2621.71    0.3923E-05    0.3922E-05    0.4631E-09
  2624.03    0.3939E-05    0.3938E-05    0.4648E-09
  2626.34    0.3955E-05    0.3955E-05    0.4666E-09
  2628.66    0.3972E-05    0.3971E-05    0.4683E-09
  2630.97    0.3988E-05    0.3988E-05    0.4700E-09
  2633.29    0.4005E-05    0.4004E-05    0.4718E-09
  2635.60    0.4021E-05    0.4021E-05    0.4735E-09
  2637.92    0.4038E-05    0.4038E-05    0.4753E-09
  2640.23    0.4055E-05    0.4055E-05    0.4771E-09
  2642.55    0.4072E-05    0.4072E-05    0.4789E-09
  2644.86    0.4089E-05    0.4089E-05    0.4808E-09
  2647.17    0.4107E-05    0.4106E-05    0.4826E-09
  2649.49    0.4124E-05    0.4123E-05    0.4844E-09
  2651.80    0.4141E-05    0.4141E-05    0.4863E-09
  2654.12    0.4159E-05    0.4159E-05    0.4882E-09
  2656.43    0.4177E-05    0.4176E-05    0.4901E-09
  2658.75    0.4195E-05    0.4194E-05    0.4920E-09
  2661.06    0.4213E-05    0.4212E-05    0.4939E-09
  2663.38    0.4231E-05    0.4231E-05    0.4959E-09
  2665.69    0.4249E-05    0.4249E-05    0.4978E-09
  2668.01    0.4268E-05    0.4267E-05    0.4998E-09
  2670.32    0.4286E-05    0.4286E-05    0.5018E-09
  2672.64    0.4305E-05    0.4304E-05    0.5038E-09
  2674.95    0.4324E-05    0.4323E-05    0.5058E-09
  2677.27    0.4343E-05    0.4342E-05    0.5078E-09
  2679.58    0.4362E-05    0.4361E-05    0.5099E-09
  2681.89    0.4381E-05    0.4380E-05    0.5119E-09
  2684.21    0.4400E-05    0.4400E-05    0.5140E-09
  2686.52    0.4420E-05    0.4419E-05    0.5161E-09
  2688.84    0.4439E-05    0.4439E-05    0.5182E-09
  2691.15    0.4459E-05    0.4459E-05    0.5203E-09
  2693.47    0.4479E-05    0.4478E-05    0.5225E-09
  2695.78    0.4499E-05    0.4499E-05    0.5246E-09
  2698.10    0.4519E-05    0.4519E-05    0.5268E-09
  2700.41    0.4540E-05    0.4539E-05    0.5290E-09
  2702.73    0.4560E-05    0.4560E-05    0.5312E-09
  2705.04    0.4581E-05    0.4580E-05    0.5334E-09
  2707.36    0.4601E-05    0.4601E-05    0.5357E-09
  2709.67    0.4622E-05    0.4622E-05    0.5379E-09
  2711.99    0.4643E-05    0.4643E-05    0.5402E-09
  2714.30    0.4665E-05    0.4664E-05    0.5425E-09
  2716.61    0.4686E-05    0.4686E-05    0.5448E-09
  2718.93    0.4708E-05    0.4707E-05    0.5471E-09
  2721.24    0.4729E-05    0.4729E-05    0.5495E-09
  2723.56    0.4751E-05    0.4751E-05    0.5519E-09
  2725.87    0.4773E-05    0.4773E-05    0.5543E-09
  2728.19    0.4795E-05    0.4795E-05    0.5567E-09
  2730.50    0.4818E-05    0.4817E-05    0.5591E-09
  2732.82    0.4840E-05    0.4840E-05    0.5615E-09
  2735.13    0.4863E-05    0.4862E-05    0.5640E-09
  2737.45    0.4886E-05    0.4885E-05    0.5665E-09
  2739.76    0.4909E-05    0.4908E-05    0.5690E-09
  2742.08    0.4932E-05    0.4932E-05    0.5715E-09
  2744.39    0.4955E-05    0.4955E-05    0.5740E-09
  2746.71    0.4979E-05    0.4978E-05    0.5766E-09
  2749.02    0.5003E-05    0.5002E-05    0.5792E-09
  2751.33    0.5027E-05    0.5026E-05    0.5818E-09
  2753.65    0.5051E-05    0.5050E-05    0.5844E-09
  2755.96    0.5075E-05    0.5074E-05    0.5871E-09
  2758.28    0.5099E-05    0.5099E-05    0.5897E-09
  2760.59    0.5124E-05    0.5124E-05    0.5924E-09
  2762.91    0.5149E-05    0.5148E-05    0.5951E-09
  2765.22    0.5174E-05    0.5173E-05    0.5979E-09
  2767.54    0.5199E-05    0.5199E-05    0.6006E-09
  2769.85    0.5225E-05    0.5224E-05    0.6034E-09
  2772.17    0.5250E-05    0.5250E-05    0.6062E-09
  2774.48    0.5276E-05    0.5275E-05    0.6090E-09
  2776.80    0.5302E-05    0.5301E-05    0.6118E-09
  2779.11    0.5328E-05    0.5328E-05    0.6147E-09
  2781.43    0.5355E-05    0.5354E-05    0.6176E-09
  2783.74    0.5381E-05    0.5381E-05    0.6205E-09
  2786.05    0.5408E-05    0.5407E-05    0.6234E-09
  2788.37    0.5435E-05    0.5434E-05    0.6264E-09
  2790.68    0.5462E-05    0.5462E-05    0.6294E-09
  2793.00    0.5490E-05    0.5489E-05    0.6324E-09
  2795.31    0.5517E-05    0.5517E-05    0.6354E-09
  2797.63    0.5545E-05    0.5545E-05    0.6385E-09
  2799.94    0.5573E-05    0.5573E-05    0.6416E-09
  2802.26    0.5602E-05    0.5601E-05    0.6447E-09
  2804.57    0.5630E-05    0.5630E-05    0.6478E-09
  2806.89    0.5659E-05    0.5658E-05    0.6510E-09
  2809.20    0.5688E-05    0.5687E-05    0.6541E-09
  2811.52    0.5717E-05    0.5717E-05    0.6574E-09
  2813.83    0.5747E-05    0.5746E-05    0.6606E-09
  2816.15    0.5776E-05    0.5776E-05    0.6639E-09
  2818.46    0.5806E-05    0.5806E-05    0.6671E-09
  2820.77    0.5837E-05    0.5836E-05    0.6705E-09
  2823.09    0.5867E-05    0.5866E-05    0.6738E-09
  2825.40    0.5898E-05    0.5897E-05    0.6772E-09
  2827.72    0.5929E-05    0.5928E-05    0.6806E-09
  2830.03    0.5960E-05    0.5959E-05    0.6840E-09
  2832.35    0.5991E-05    0.5991E-05    0.6875E-09
  2834.66    0.6023E-05    0.6022E-05    0.6910E-09
  2836.98    0.6055E-05    0.6054E-05    0.6945E-09
  2839.29    0.6087E-05    0.6086E-05    0.6980E-09
  2841.61    0.6120E-05    0.6119E-05    0.7016E-09
  2843.92    0.6152E-05    0.6152E-05    0.7052E-09
  2846.24    0.6185E-05    0.6185E-05    0.7089E-09
  2848.55    0.6219E-05    0.6218E-05    0.7125E-09
  2850.87    0.6252E-05    0.6252E-05    0.7162E-09
  2853.18    0.6286E-05    0.6285E-05    0.7200E-09
  2855.49    0.6320E-05    0.6320E-05    0.7237E-09
  2857.81    0.6355E-05    0.6354E-05    0.7275E-09
  2860.12    0.6389E-05    0.6389E-05    0.7314E-09
  2862.44    0.6424E-05    0.6424E-05    0.7352E-09
  2864.75    0.6460E-05    0.6459E-05    0.7391E-09
  2867.07    0.6495E-05    0.6495E-05    0.7431E-09
  2869.38    0.6531E-05    0.6531E-05    0.7470E-09
  2871.70    0.6567E-05    0.6567E-05    0.7510E-09
  2874.01    0.6604E-05    0.6603E-05    0.7551E-09
  2876.33    0.6641E-05    0.6640E-05    0.7592E-09
  2878.64    0.6678E-05    0.6677E-05    0.7633E-09
  2880.96    0.6716E-05    0.6715E-05    0.7674E-09
  2883.27    0.6753E-05    0.6753E-05    0.7716E-09
  2885.59    0.6791E-05    0.6791E-05    0.7758E-09
  2887.90    0.6830E-05    0.6829E-05    0.7801E-09
  2890.21    0.6869E-05    0.6868E-05    0.7844E-09
  2892.53    0.6908E-05    0.6907E-05    0.7887E-09
  2894.84    0.6947E-05    0.6947E-05    0.7931E-09
  2897.16    0.6987E-05    0.6986E-05    0.7975E-09
  2899.47    0.7027E-05    0.7027E-05    0.8019E-09
  2901.79    0.7068E-05    0.7067E-05    0.8064E-09
  2904.10    0.7109E-05    0.7108E-05    0.8109E-09
  2906.42    0.7150E-05    0.7149E-05    0.8155E-09
  2908.73    0.7192E-05    0.7191E-05    0.8201E-09
  2911.05    0.7234E-05    0.7233E-05    0.8248E-09
  2913.36    0.7276E-05    0.7275E-05    0.8295E-09
  2915.68    0.7319E-05    0.7318E-05    0.8342E-09
  2917.99    0.7362E-05    0.7361E-05    0.8390E-09
  2920.31    0.7406E-05    0.7405E-05    0.8438E-09
  2922.62    0.7450E-05    0.7449E-05    0.8487E-09
  2924.93    0.7494E-05    0.7493E-05    0.8536E-09
  2927.25    0.7539E-05    0.7538E-05    0.8586E-09
  2929.56    0.7584E-05    0.7583E-05    0.8636E-09
  2931.88    0.7630E-05    0.7629E-05    0.8687E-09
  2934.19    0.7676E-05    0.7675E-05    0.8738E-09
  2936.51    0.7722E-05    0.7721E-05    0.8789E-09
  2938.82    0.7769E-05    0.7768E-05    0.8841E-09
  2941.14    0.7816E-05    0.7815E-05    0.8894E-09
  2943.45    0.7864E-05    0.7863E-05    0.8947E-09
  2945.77    0.7912E-05    0.7911E-05    0.9000E-09
  2948.08    0.7961E-05    0.7960E-05    0.9054E-09
  2950.40    0.8010E-05    0.8009E-05    0.9109E-09
  2952.71    0.8059E-05    0.8058E-05    0.9164E-09
  2955.03    0.8109E-05    0.8108E-05    0.9220E-09
  2957.34    0.8160E-05    0.8159E-05    0.9276E-09
  2959.65    0.8211E-05    0.8210E-05    0.9332E-09
  2961.97    0.8262E-05    0.8261E-05    0.9389E-09
  2964.28    0.8314E-05    0.8313E-05    0.9447E-09
  2966.60    0.8367E-05    0.8366E-05    0.9506E-09
  2968.91    0.8420E-05    0.8419E-05    0.9564E-09
  2971.23    0.8473E-05    0.8472E-05    0.9624E-09
  2973.54    0.8527E-05    0.8526E-05    0.9684E-09
  2975.86    0.8582E-05    0.8581E-05    0.9745E-09
  2978.17    0.8637E-05    0.8636E-05    0.9806E-09
  2980.49    0.8692E-05    0.8691E-05    0.9868E-09
  2982.80    0.8749E-05    0.8748E-05    0.9930E-09
  2985.12    0.8805E-05    0.8804E-05    0.9993E-09
  2987.43    0.8863E-05    0.8862E-05    0.1006E-08
  2989.75    0.8920E-05    0.8919E-05    0.1012E-08
  2992.06    0.8979E-05    0.8978E-05    0.1019E-08
  2994.37    0.9038E-05    0.9037E-05    0.1025E-08
  2996.69    0.9097E-05    0.9096E-05    0.1032E-08
  2999.00    0.9158E-05    0.9157E-05    0.1039E-08
  3001.32    0.9218E-05    0.9217E-05    0.1045E-08
  3003.63    0.9280E-05    0.9279E-05    0.1052E-08
  3005.95    0.9342E-05    0.9341E-05    0.1059E-08
  3008.26    0.9405E-05    0.9403E-05    0.1066E-08
  3010.58    0.9468E-05    0.9467E-05    0.1073E-08
  3012.89    0.9532E-05    0.9531E-05    0.1080E-08
  3015.21    0.9596E-05    0.9595E-05    0.1087E-08
  3017.52    0.9662E-05    0.9661E-05    0.1095E-08
  3019.84    0.9728E-05    0.9727E-05    0.1102E-08
  3022.15    0.9794E-05    0.9793E-05    0.1109E-08
  3024.47    0.9862E-05    0.9861E-05    0.1117E-08
  3026.78    0.9930E-05    0.9929E-05    0.1125E-08
  3029.09    0.9999E-05    0.9997E-05    0.1132E-08
  3031.41    0.1007E-04    0.1007E-04    0.1140E-08
  3033.72    0.1014E-04    0.1014E-04    0.1148E-08
  3036.04    0.1021E-04    0.1021E-04    0.1156E-08
  3038.35    0.1028E-04    0.1028E-04    0.1164E-08
  3040.67    0.1035E-04    0.1035E-04    0.1172E-08
  3042.98    0.1043E-04    0.1043E-04    0.1180E-08
  3045.30    0.1050E-04    0.1050E-04    0.1188E-08
  3047.61    0.1058E-04    0.1057E-04    0.1197E-08
  3049.93    0.1065E-04    0.1065E-04    0.1205E-08
  3052.24    0.1073E-04    0.1073E-04    0.1214E-08
  3054.56    0.1081E-04    0.1080E-04    0.1222E-08
  3056.87    0.1088E-04    0.1088E-04    0.1231E-08
  3059.19    0.1096E-04    0.1096E-04    0.1240E-08
  3061.50    0.1104E-04    0.1104E-04    0.1249E-08
  3063.81    0.1112E-04    0.1112E-04    0.1258E-08
  3066.13    0.1121E-04    0.1120E-04    0.1267E-08
  3068.44    0.1129E-04    0.1129E-04    0.1276E-08
  3070.76    0.1137E-04    0.1137E-04    0.1285E-08
  3073.07    0.1146E-04    0.1145E-04    0.1295E-08
  3075.39    0.1154E-04    0.1154E-04    0.1304E-08
  3077.70    0.1163E-04    0.1163E-04    0.1314E-08
  3080.02    0.1172E-04    0.1171E-04    0.1324E-08
  3082.33    0.1180E-04    0.1180E-04    0.1334E-08
  3084.65    0.1189E-04    0.1189E-04    0.1344E-08
  3086.96    0.1198E-04    0.1198E-04    0.1354E-08
  3089.28    0.1208E-04    0.1207E-04    0.1364E-08
  3091.59    0.1217E-04    0.1217E-04    0.1374E-08
  3093.91    0.1226E-04    0.1226E-04    0.1385E-08
  3096.22    0.1236E-04    0.1235E-04    0.1395E-08
  3098.53    0.1245E-04    0.1245E-04    0.1406E-08
  3100.85    0.1255E-04    0.1255E-04    0.1417E-08
  3103.16    0.1265E-04    0.1265E-04    0.1428E-08
  3105.48    0.1275E-04    0.1275E-04    0.1439E-08
  3107.79    0.1285E-04    0.1285E-04    0.1450E-08
  3110.11    0.1295E-04    0.1295E-04    0.1461E-08
  3112.42    0.1305E-04    0.1305E-04    0.1473E-08
  3114.74    0.1316E-04    0.1315E-04    0.1485E-08
  3117.05    0.1326E-04    0.1326E-04    0.1496E-08
  3119.37    0.1337E-04    0.1337E-04    0.1508E-08
  3121.68    0.1348E-04    0.1347E-04    0.1520E-08
  3124.00    0.1359E-04    0.1358E-04    0.1533E-08
  3126.31    0.1370E-04    0.1370E-04    0.1545E-08
  3128.63    0.1381E-04    0.1381E-04    0.1558E-08
  3130.94    0.1392E-04    0.1392E-04    0.1570E-08
  3133.26    0.1404E-04    0.1404E-04    0.1583E-08
  3135.57    0.1415E-04    0.1415E-04    0.1596E-08
  3137.88    0.1427E-04    0.1427E-04    0.1609E-08
  3140.20    0.1439E-04    0.1439E-04    0.1623E-08
  3142.51    0.1451E-04    0.1451E-04    0.1636E-08
  3144.83    0.1463E-04    0.1463E-04    0.1650E-08
  3147.14    0.1476E-04    0.1476E-04    0.1664E-08
  3149.46    0.1488E-04    0.1488E-04    0.1678E-08
  3151.77    0.1501E-04    0.1501E-04    0.1692E-08
  3154.09    0.1514E-04    0.1514E-04    0.1706E-08
  3156.40    0.1527E-04    0.1527E-04    0.1721E-08
  3158.72    0.1540E-04    0.1540E-04    0.1736E-08
  3161.03    0.1554E-04    0.1553E-04    0.1751E-08
  3163.35    0.1567E-04    0.1567E-04    0.1766E-08
  3165.66    0.1581E-04    0.1581E-04    0.1781E-08
  3167.98    0.1595E-04    0.1595E-04    0.1797E-08
  3170.29    0.1609E-04    0.1609E-04    0.1812E-08
  3172.60    0.1623E-04    0.1623E-04    0.1828E-08
  3174.92    0.1638E-04    0.1638E-04    0.1845E-08
  3177.23    0.1652E-04    0.1652E-04    0.1861E-08
  3179.55    0.1667E-04    0.1667E-04    0.1878E-08
  3181.86    0.1682E-04    0.1682E-04    0.1895E-08
  3184.18    0.1698E-04    0.1698E-04    0.1912E-08
  3186.49    0.1713E-04    0.1713E-04    0.1929E-08
  3188.81    0.1729E-04    0.1729E-04    0.1947E-08
  3191.12    0.1745E-04    0.1745E-04    0.1965E-08
  3193.44    0.1761E-04    0.1761E-04    0.1983E-08
  3195.75    0.1778E-04    0.1777E-04    0.2001E-08
  3198.07    0.1794E-04    0.1794E-04    0.2020E-08
  3200.38    0.1811E-04    0.1811E-04    0.2039E-08
  3202.70    0.1828E-04    0.1828E-04    0.2058E-08
  3205.01    0.1846E-04    0.1845E-04    0.2077E-08
  3207.32    0.1863E-04    0.1863E-04    0.2097E-08
  3209.64    0.1881E-04    0.1881E-04    0.2117E-08
  3211.95    0.1899E-04    0.1899E-04    0.2137E-08
  3214.27    0.1918E-04    0.1917E-04    0.2158E-08
  3216.58    0.1936E-04    0.1936E-04    0.2179E-08
  3218.90    0.1955E-04    0.1955E-04    0.2200E-08
  3221.21    0.1974E-04    0.1974E-04    0.2221E-08
  3223.53    0.1994E-04    0.1994E-04    0.2243E-08
  3225.84    0.2014E-04    0.2013E-04    0.2265E-08
  3228.16    0.2034E-04    0.2034E-04    0.2288E-08
  3230.47    0.2054E-04    0.2054E-04    0.2311E-08
  3232.79    0.2075E-04    0.2075E-04    0.2334E-08
  3235.10    0.2096E-04    0.2096E-04    0.2357E-08
  3237.42    0.2117E-04    0.2117E-04    0.2381E-08
  3239.73    0.2139E-04    0.2139E-04    0.2405E-08
  3242.04    0.2161E-04    0.2161E-04    0.2430E-08
  3244.36    0.2183E-04    0.2183E-04    0.2455E-08
  3246.67    0.2206E-04    0.2206E-04    0.2481E-08
  3248.99    0.2229E-04    0.2229E-04    0.2506E-08
  3251.30    0.2253E-04    0.2252E-04    0.2533E-08
  3253.62    0.2276E-04    0.2276E-04    0.2559E-08
  3255.93    0.2301E-04    0.2300E-04    0.2586E-08
  3258.25    0.2325E-04    0.2325E-04    0.2614E-08
  3260.56    0.2350E-04    0.2350E-04    0.2642E-08
  3262.88    0.2376E-04    0.2375E-04    0.2670E-08
  3265.19    0.2401E-04    0.2401E-04    0.2699E-08
  3267.51    0.2428E-04    0.2427E-04    0.2729E-08
  3269.82    0.2454E-04    0.2454E-04    0.2758E-08
  3272.14    0.2482E-04    0.2481E-04    0.2789E-08
  3274.45    0.2509E-04    0.2509E-04    0.2820E-08
  3276.76    0.2537E-04    0.2537E-04    0.2851E-08
  3279.08    0.2566E-04    0.2565E-04    0.2883E-08
  3281.39    0.2595E-04    0.2594E-04    0.2915E-08
  3283.71    0.2624E-04    0.2624E-04    0.2948E-08
  3286.02    0.2654E-04    0.2654E-04    0.2982E-08
  3288.34    0.2685E-04    0.2684E-04    0.3016E-08
  3290.65    0.2716E-04    0.2716E-04    0.3051E-08
  3292.97    0.2747E-04    0.2747E-04    0.3086E-08
  3295.28    0.2780E-04    0.2779E-04    0.3122E-08
  3297.60    0.2812E-04    0.2812E-04    0.3159E-08
  3299.91    0.2846E-04    0.2845E-04    0.3196E-08
  3302.23    0.2880E-04    0.2879E-04    0.3234E-08
  3304.54    0.2914E-04    0.2914E-04    0.3273E-08
  3306.86    0.2949E-04    0.2949E-04    0.3313E-08
  3309.17    0.2985E-04    0.2985E-04    0.3353E-08
  3311.48    0.3022E-04    0.3021E-04    0.3393E-08
  3313.80    0.3059E-04    0.3059E-04    0.3435E-08
  3316.11    0.3097E-04    0.3096E-04    0.3477E-08
  3318.43    0.3135E-04    0.3135E-04    0.3521E-08
  3320.74    0.3175E-04    0.3174E-04    0.3565E-08
  3323.06    0.3215E-04    0.3214E-04    0.3610E-08
  3325.37    0.3256E-04    0.3255E-04    0.3655E-08
  3327.69    0.3297E-04    0.3297E-04    0.3702E-08
  3330.00    0.3340E-04    0.3339E-04    0.3749E-08
  3332.32    0.3383E-04    0.3382E-04    0.3798E-08
  3334.63    0.3427E-04    0.3427E-04    0.3847E-08
  3336.95    0.3472E-04    0.3471E-04    0.3898E-08
  3339.26    0.3518E-04    0.3517E-04    0.3949E-08
  3341.58    0.3565E-04    0.3564E-04    0.4001E-08
  3343.89    0.3612E-04    0.3612E-04    0.4055E-08
  3346.20    0.3661E-04    0.3661E-04    0.4109E-08
  3348.52    0.3711E-04    0.3710E-04    0.4165E-08
  3350.83    0.3761E-04    0.3761E-04    0.4222E-08
  3353.15    0.3813E-04    0.3813E-04    0.4280E-08
  3355.46    0.3866E-04    0.3866E-04    0.4339E-08
  3357.78    0.3920E-04    0.3920E-04    0.4400E-08
  3360.09    0.3975E-04    0.3975E-04    0.4461E-08
  3362.41    0.4032E-04    0.4031E-04    0.4524E-08
  3364.72    0.4089E-04    0.4089E-04    0.4589E-08
  3367.04    0.4148E-04    0.4147E-04    0.4655E-08
  3369.35    0.4208E-04    0.4208E-04    0.4722E-08
  3371.67    0.4269E-04    0.4269E-04    0.4791E-08
  3373.98    0.4332E-04    0.4332E-04    0.4861E-08
  3376.30    0.4396E-04    0.4396E-04    0.4933E-08
  3378.61    0.4462E-04    0.4462E-04    0.5006E-08
  3380.92    0.4529E-04    0.4529E-04    0.5082E-08
  3383.24    0.4598E-04    0.4597E-04    0.5158E-08
  3385.55    0.4668E-04    0.4668E-04    0.5237E-08
  3387.87    0.4740E-04    0.4739E-04    0.5318E-08
  3390.18    0.4813E-04    0.4813E-04    0.5400E-08
  3392.50    0.4889E-04    0.4888E-04    0.5484E-08
  3394.81    0.4966E-04    0.4965E-04    0.5571E-08
  3397.13    0.5045E-04    0.5044E-04    0.5659E-08
  3399.44    0.5126E-04    0.5125E-04    0.5750E-08
  3401.76    0.5208E-04    0.5208E-04    0.5842E-08
  3404.07    0.5293E-04    0.5293E-04    0.5937E-08
  3406.39    0.5380E-04    0.5380E-04    0.6035E-08
  3408.70    0.5470E-04    0.5469E-04    0.6135E-08
  3411.02    0.5561E-04    0.5560E-04    0.6237E-08
  3413.33    0.5655E-04    0.5654E-04    0.6342E-08
  3415.64    0.5751E-04    0.5750E-04    0.6450E-08
  3417.96    0.5850E-04    0.5849E-04    0.6560E-08
  3420.27    0.5951E-04    0.5950E-04    0.6674E-08
  3422.59    0.6055E-04    0.6054E-04    0.6790E-08
  3424.90    0.6161E-04    0.6161E-04    0.6910E-08
  3427.22    0.6271E-04    0.6270E-04    0.7032E-08
  3429.53    0.6383E-04    0.6383E-04    0.7158E-08
  3431.85    0.6499E-04    0.6498E-04    0.7288E-08
  3434.16    0.6618E-04    0.6617E-04    0.7421E-08
  3436.48    0.6740E-04    0.6739E-04    0.7558E-08
  3438.79    0.6866E-04    0.6865E-04    0.7698E-08
  3441.11    0.6995E-04    0.6994E-04    0.7843E-08
  3443.42    0.7128E-04    0.7127E-04    0.7992E-08
  3445.74    0.7264E-04    0.7263E-04    0.8145E-08
  3448.05    0.7405E-04    0.7404E-04    0.8302E-08
  3450.36    0.7550E-04    0.7549E-04    0.8465E-08
  3452.68    0.7699E-04    0.7698E-04    0.8632E-08
  3454.99    0.7853E-04    0.7852E-04    0.8804E-08
  3457.31    0.8011E-04    0.8010E-04    0.8982E-08
  3459.62    0.8174E-04    0.8174E-04    0.9164E-08
  3461.94    0.8343E-04    0.8342E-04    0.9353E-08
  3464.25    0.8517E-04    0.8516E-04    0.9548E-08
  3466.57    0.8696E-04    0.8695E-04    0.9748E-08
  3468.88    0.8881E-04    0.8880E-04    0.9956E-08
  3471.20    0.9072E-04    0.9071E-04    0.1017E-07
  3473.51    0.9269E-04    0.9268E-04    0.1039E-07
  3475.83    0.9473E-04    0.9472E-04    0.1062E-07
  3478.14    0.9684E-04    0.9683E-04    0.1086E-07
  3480.46    0.9902E-04    0.9901E-04    0.1110E-07
  3482.77    0.1013E-03    0.1013E-03    0.1135E-07
  3485.08    0.1036E-03    0.1036E-03    0.1161E-07
  3487.40    0.1060E-03    0.1060E-03    0.1188E-07
  3489.71    0.1085E-03    0.1085E-03    0.1216E-07
  3492.03    0.1111E-03    0.1111E-03    0.1245E-07
  3494.34    0.1138E-03    0.1138E-03    0.1276E-07
  3496.66    0.1166E-03    0.1166E-03    0.1307E-07
  3498.97    0.1195E-03    0.1195E-03    0.1339E-07
  3501.29    0.1225E-03    0.1225E-03    0.1373E-07
  3503.60    0.1256E-03    0.1256E-03    0.1408E-07
  3505.92    0.1289E-03    0.1288E-03    0.1444E-07
  3508.23    0.1322E-03    0.1322E-03    0.1482E-07
  3510.55    0.1357E-03    0.1357E-03    0.1521E-07
  3512.86    0.1394E-03    0.1394E-03    0.1562E-07
  3515.18    0.1432E-03    0.1432E-03    0.1605E-07
  3517.49    0.1471E-03    0.1471E-03    0.1649E-07
  3519.80    0.1513E-03    0.1512E-03    0.1695E-07
  3522.12    0.1556E-03    0.1555E-03    0.1743E-07
  3524.43    0.1600E-03    0.1600E-03    0.1794E-07
  3526.75    0.1647E-03    0.1647E-03    0.1846E-07
  3529.06    0.1696E-03    0.1696E-03    0.1901E-07
  3531.38    0.1748E-03    0.1747E-03    0.1958E-07
  3533.69    0.1801E-03    0.1801E-03    0.2019E-07
  3536.01    0.1858E-03    0.1857E-03    0.2082E-07
  3538.32    0.1916E-03    0.1916E-03    0.2148E-07
  3540.64    0.1978E-03    0.1978E-03    0.2217E-07
  3542.95    0.2043E-03    0.2043E-03    0.2289E-07
  3545.27    0.2111E-03    0.2111E-03    0.2366E-07
  3547.58    0.2183E-03    0.2183E-03    0.2446E-07
  3549.90    0.2258E-03    0.2258E-03    0.2530E-07
  3552.21    0.2338E-03    0.2337E-03    0.2619E-07
  3554.52    0.2421E-03    0.2421E-03    0.2713E-07
  3556.84    0.2510E-03    0.2510E-03    0.2812E-07
  3559.15    0.2603E-03    0.2603E-03    0.2917E-07
  3561.47    0.2702E-03    0.2702E-03    0.3027E-07
  3563.78    0.2806E-03    0.2806E-03    0.3145E-07
  3566.10    0.2917E-03    0.2917E-03    0.3269E-07
  3568.41    0.3035E-03    0.3034E-03    0.3400E-07
  3570.73    0.3160E-03    0.3159E-03    0.3540E-07
  3573.04    0.3293E-03    0.3292E-03    0.3689E-07
  3575.36    0.3434E-03    0.3434E-03    0.3848E-07
  3577.67    0.3585E-03    0.3585E-03    0.4017E-07
  3579.99    0.3746E-03    0.3746E-03    0.4197E-07
  3582.30    0.3919E-03    0.3918E-03    0.4390E-07
  3584.62    0.4103E-03    0.4103E-03    0.4598E-07
  3586.93    0.4302E-03    0.4301E-03    0.4820E-07
  3589.24    0.4515E-03    0.4515E-03    0.5059E-07
  3591.56    0.4745E-03    0.4744E-03    0.5316E-07
  3593.87    0.4992E-03    0.4992E-03    0.5593E-07
  3596.19    0.5260E-03    0.5260E-03    0.5894E-07
  3598.50    0.5551E-03    0.5550E-03    0.6219E-07
  3600.82    0.5866E-03    0.5865E-03    0.6572E-07
  3603.13    0.6209E-03    0.6208E-03    0.6956E-07
  3605.45    0.6584E-03    0.6583E-03    0.7376E-07
  3607.76    0.6993E-03    0.6992E-03    0.7835E-07
  3610.08    0.7442E-03    0.7442E-03    0.8338E-07
  3612.39    0.7937E-03    0.7936E-03    0.8892E-07
  3614.71    0.8483E-03    0.8482E-03    0.9503E-07
  3617.02    0.9087E-03    0.9086E-03    0.1018E-06
  3619.34    0.9758E-03    0.9757E-03    0.1093E-06
  3621.65    0.1051E-02    0.1051E-02    0.1177E-06
  3623.97    0.1135E-02    0.1134E-02    0.1271E-06
  3626.28    0.1229E-02    0.1229E-02    0.1377E-06
  3628.59    0.1336E-02    0.1335E-02    0.1496E-06
  3630.91    0.1457E-02    0.1457E-02    0.1632E-06
  3633.22    0.1595E-02    0.1595E-02    0.1787E-06
  3635.54    0.1754E-02    0.1754E-02    0.1965E-06
  3637.85    0.1938E-02    0.1938E-02    0.2171E-06
  3640.17    0.2152E-02    0.2151E-02    0.2410E-06
  3642.48    0.2402E-02    0.2402E-02    0.2691E-06
  3644.80    0.2699E-02    0.2699E-02    0.3024E-06
  3647.11    0.3053E-02    0.3052E-02    0.3420E-06
  3649.43    0.3479E-02    0.3478E-02    0.3897E-06
  3651.74    0.3997E-02    0.3997E-02    0.4478E-06
  3654.06    0.4636E-02    0.4636E-02    0.5194E-06
  3656.37    0.5432E-02    0.5431E-02    0.6085E-06
  3658.69    0.6437E-02    0.6436E-02    0.7211E-06
  3661.00    0.7722E-02    0.7721E-02    0.8651E-06
  3663.31    0.9387E-02    0.9386E-02    0.1052E-05
  3665.63    0.1156E-01    0.1156E-01    0.1295E-05
  3667.94    0.1442E-01    0.1442E-01    0.1615E-05
  3670.26    0.1813E-01    0.1813E-01    0.2031E-05
  3672.57    0.2278E-01    0.2278E-01    0.2552E-05
  3674.89    0.2809E-01    0.2809E-01    0.3147E-05
  3677.20    0.3305E-01    0.3305E-01    0.3703E-05
  3679.52    0.3587E-01    0.3586E-01    0.4018E-05
  3681.83    0.3512E-01    0.3512E-01    0.3935E-05
  3684.15    0.3122E-01    0.3122E-01    0.3498E-05
  3686.46    0.2595E-01    0.2595E-01    0.2907E-05
  3688.78    0.2084E-01    0.2083E-01    0.2334E-05
  3691.09    0.1657E-01    0.1656E-01    0.1856E-05
  3693.41    0.1322E-01    0.1322E-01    0.1481E-05
  3695.72    0.1067E-01    0.1067E-01    0.1195E-05
  3698.03    0.8722E-02    0.8721E-02    0.9771E-06
  3700.35    0.7232E-02    0.7231E-02    0.8102E-06
  3702.66    0.6078E-02    0.6077E-02    0.6809E-06
  3704.98    0.5173E-02    0.5173E-02    0.5795E-06
  3707.29    0.4455E-02    0.4455E-02    0.4991E-06
  3709.61    0.3879E-02    0.3879E-02    0.4346E-06
  3711.92    0.3412E-02    0.3411E-02    0.3822E-06
  3714.24    0.3029E-02    0.3028E-02    0.3393E-06
  3716.55    0.2712E-02    0.2712E-02    0.3039E-06
  3718.87    0.2450E-02    0.2449E-02    0.2744E-06
  3721.18    0.2230E-02    0.2230E-02    0.2498E-06
  3723.50    0.2046E-02    0.2046E-02    0.2292E-06
  3725.81    0.1892E-02    0.1891E-02    0.2119E-06
  3728.13    0.1762E-02    0.1762E-02    0.1974E-06
  3730.44    0.1655E-02    0.1654E-02    0.1854E-06
  3732.75    0.1566E-02    0.1566E-02    0.1754E-06
  3735.07    0.1494E-02    0.1494E-02    0.1674E-06
  3737.38    0.1438E-02    0.1438E-02    0.1611E-06
  3739.70    0.1397E-02    0.1397E-02    0.1565E-06
  3742.01    0.1370E-02    0.1370E-02    0.1535E-06
  3744.33    0.1358E-02    0.1358E-02    0.1521E-06
  3746.64    0.1361E-02    0.1361E-02    0.1524E-06
  3748.96    0.1381E-02    0.1380E-02    0.1546E-06
  3751.27    0.1419E-02    0.1419E-02    0.1590E-06
  3753.59    0.1480E-02    0.1480E-02    0.1658E-06
  3755.90    0.1567E-02    0.1567E-02    0.1755E-06
  3758.22    0.1687E-02    0.1687E-02    0.1890E-06
  3760.53    0.1849E-02    0.1849E-02    0.2071E-06
  3762.85    0.2065E-02    0.2065E-02    0.2314E-06
  3765.16    0.2354E-02    0.2354E-02    0.2637E-06
  3767.47    0.2739E-02    0.2739E-02    0.3068E-06
  3769.79    0.3253E-02    0.3253E-02    0.3644E-06
  3772.10    0.3937E-02    0.3937E-02    0.4410E-06
  3774.42    0.4829E-02    0.4828E-02    0.5409E-06
  3776.73    0.5936E-02    0.5936E-02    0.6649E-06
  3779.05    0.7165E-02    0.7164E-02    0.8025E-06
  3781.36    0.8231E-02    0.8230E-02    0.9220E-06
  3783.68    0.8704E-02    0.8703E-02    0.9749E-06
  3785.99    0.8328E-02    0.8327E-02    0.9328E-06
  3788.31    0.7296E-02    0.7296E-02    0.8172E-06
  3790.62    0.6039E-02    0.6038E-02    0.6764E-06
  3792.94    0.4872E-02    0.4872E-02    0.5457E-06
  3795.25    0.3914E-02    0.3914E-02    0.4384E-06
  3797.57    0.3168E-02    0.3168E-02    0.3549E-06
  3799.88    0.2597E-02    0.2597E-02    0.2909E-06
  3802.19    0.2160E-02    0.2160E-02    0.2419E-06
  3804.51    0.1822E-02    0.1822E-02    0.2041E-06
  3806.82    0.1558E-02    0.1558E-02    0.1745E-06
  3809.14    0.1348E-02    0.1348E-02    0.1510E-06
  3811.45    0.1180E-02    0.1180E-02    0.1321E-06
  3813.77    0.1043E-02    0.1042E-02    0.1168E-06
  3816.08    0.9294E-03    0.9293E-03    0.1041E-06
  3818.40    0.8351E-03    0.8350E-03    0.9354E-07
  3820.71    0.7556E-03    0.7555E-03    0.8464E-07
  3823.03    0.6879E-03    0.6879E-03    0.7706E-07
  3825.34    0.6299E-03    0.6298E-03    0.7056E-07
  3827.66    0.5796E-03    0.5796E-03    0.6493E-07
  3829.97    0.5358E-03    0.5357E-03    0.6002E-07
  3832.29    0.4973E-03    0.4973E-03    0.5571E-07
  3834.60    0.4634E-03    0.4633E-03    0.5191E-07
  3836.91    0.4332E-03    0.4331E-03    0.4853E-07
  3839.23    0.4062E-03    0.4061E-03    0.4550E-07
  3841.54    0.3820E-03    0.3819E-03    0.4279E-07
  3843.86    0.3601E-03    0.3601E-03    0.4035E-07
  3846.17    0.3404E-03    0.3403E-03    0.3813E-07
